Created as New Dataset,Sample 932 By YargerLab Date Monday, July 28 2025
cm-1,A
4000.00,0.0013
3999.00,0.0013
3998.00,0.0013
3997.00,0.0012
3996.00,0.0012
3995.00,0.0012
3994.00,0.0012
3993.00,0.0012
3992.00,0.0012
3991.00,0.0012
3990.00,0.0012
3989.00,0.0012
3988.00,0.0012
3987.00,0.0012
3986.00,0.0012
3985.00,0.0012
3984.00,0.0012
3983.00,0.0013
3982.00,0.0013
3981.00,0.0013
3980.00,0.0013
3979.00,0.0013
3978.00,0.0012
3977.00,0.0012
3976.00,0.0012
3975.00,0.0012
3974.00,0.0012
3973.00,0.0013
3972.00,0.0013
3971.00,0.0013
3970.00,0.0012
3969.00,0.0012
3968.00,0.0012
3967.00,0.0012
3966.00,0.0012
3965.00,0.0012
3964.00,0.0012
3963.00,0.0012
3962.00,0.0012
3961.00,0.0012
3960.00,0.0012
3959.00,0.0013
3958.00,0.0013
3957.00,0.0012
3956.00,0.0012
3955.00,0.0012
3954.00,0.0012
3953.00,0.0012
3952.00,0.0012
3951.00,0.0012
3950.00,0.0012
3949.00,0.0012
3948.00,0.0011
3947.00,0.0011
3946.00,0.0011
3945.00,0.0011
3944.00,0.0012
3943.00,0.0012
3942.00,0.0012
3941.00,0.0012
3940.00,0.0012
3939.00,0.0012
3938.00,0.0012
3937.00,0.0012
3936.00,0.0012
3935.00,0.0012
3934.00,0.0011
3933.00,0.0011
3932.00,0.0011
3931.00,0.0011
3930.00,0.0011
3929.00,0.0011
3928.00,0.0012
3927.00,0.0012
3926.00,0.0012
3925.00,0.0012
3924.00,0.0012
3923.00,0.0012
3922.00,0.0012
3921.00,0.0011
3920.00,0.0011
3919.00,0.0011
3918.00,0.0011
3917.00,0.0011
3916.00,0.0011
3915.00,0.0011
3914.00,0.0011
3913.00,0.0011
3912.00,0.0012
3911.00,0.0012
3910.00,0.0012
3909.00,0.0012
3908.00,0.0012
3907.00,0.0012
3906.00,0.0011
3905.00,0.0011
3904.00,0.0011
3903.00,0.0011
3902.00,0.0010
3901.00,0.0010
3900.00,0.0010
3899.00,0.0010
3898.00,0.0010
3897.00,0.0010
3896.00,0.0011
3895.00,0.0011
3894.00,0.0011
3893.00,0.0011
3892.00,0.0011
3891.00,0.0011
3890.00,0.0011
3889.00,0.0011
3888.00,0.0011
3887.00,0.0010
3886.00,0.0010
3885.00,0.0010
3884.00,0.0010
3883.00,0.0010
3882.00,0.0010
3881.00,0.0010
3880.00,0.0011
3879.00,0.0011
3878.00,0.0011
3877.00,0.0010
3876.00,0.0010
3875.00,0.0010
3874.00,0.0010
3873.00,0.0010
3872.00,0.0010
3871.00,0.0010
3870.00,0.0009
3869.00,0.0010
3868.00,0.0010
3867.00,0.0009
3866.00,0.0009
3865.00,0.0009
3864.00,0.0010
3863.00,0.0010
3862.00,0.0010
3861.00,0.0011
3860.00,0.0011
3859.00,0.0011
3858.00,0.0011
3857.00,0.0012
3856.00,0.0012
3855.00,0.0012
3854.00,0.0011
3853.00,0.0011
3852.00,0.0010
3851.00,0.0010
3850.00,0.0009
3849.00,0.0009
3848.00,0.0010
3847.00,0.0010
3846.00,0.0010
3845.00,0.0010
3844.00,0.0011
3843.00,0.0011
3842.00,0.0010
3841.00,0.0010
3840.00,0.0010
3839.00,0.0010
3838.00,0.0010
3837.00,0.0010
3836.00,0.0010
3835.00,0.0010
3834.00,0.0010
3833.00,0.0010
3832.00,0.0010
3831.00,0.0011
3830.00,0.0011
3829.00,0.0011
3828.00,0.0011
3827.00,0.0011
3826.00,0.0011
3825.00,0.0011
3824.00,0.0010
3823.00,0.0010
3822.00,0.0009
3821.00,0.0010
3820.00,0.0010
3819.00,0.0010
3818.00,0.0010
3817.00,0.0010
3816.00,0.0010
3815.00,0.0011
3814.00,0.0011
3813.00,0.0011
3812.00,0.0011
3811.00,0.0012
3810.00,0.0012
3809.00,0.0012
3808.00,0.0012
3807.00,0.0012
3806.00,0.0011
3805.00,0.0011
3804.00,0.0011
3803.00,0.0011
3802.00,0.0011
3801.00,0.0011
3800.00,0.0011
3799.00,0.0011
3798.00,0.0010
3797.00,0.0010
3796.00,0.0011
3795.00,0.0011
3794.00,0.0012
3793.00,0.0012
3792.00,0.0012
3791.00,0.0012
3790.00,0.0012
3789.00,0.0012
3788.00,0.0012
3787.00,0.0012
3786.00,0.0012
3785.00,0.0012
3784.00,0.0012
3783.00,0.0012
3782.00,0.0011
3781.00,0.0011
3780.00,0.0011
3779.00,0.0011
3778.00,0.0011
3777.00,0.0011
3776.00,0.0011
3775.00,0.0011
3774.00,0.0011
3773.00,0.0012
3772.00,0.0011
3771.00,0.0011
3770.00,0.0011
3769.00,0.0011
3768.00,0.0011
3767.00,0.0011
3766.00,0.0011
3765.00,0.0012
3764.00,0.0012
3763.00,0.0011
3762.00,0.0011
3761.00,0.0010
3760.00,0.0010
3759.00,0.0010
3758.00,0.0011
3757.00,0.0011
3756.00,0.0011
3755.00,0.0011
3754.00,0.0011
3753.00,0.0010
3752.00,0.0010
3751.00,0.0010
3750.00,0.0009
3749.00,0.0009
3748.00,0.0009
3747.00,0.0009
3746.00,0.0009
3745.00,0.0009
3744.00,0.0009
3743.00,0.0009
3742.00,0.0010
3741.00,0.0009
3740.00,0.0009
3739.00,0.0009
3738.00,0.0009
3737.00,0.0009
3736.00,0.0009
3735.00,0.0009
3734.00,0.0009
3733.00,0.0009
3732.00,0.0009
3731.00,0.0010
3730.00,0.0010
3729.00,0.0010
3728.00,0.0010
3727.00,0.0010
3726.00,0.0010
3725.00,0.0011
3724.00,0.0011
3723.00,0.0010
3722.00,0.0010
3721.00,0.0010
3720.00,0.0010
3719.00,0.0010
3718.00,0.0010
3717.00,0.0011
3716.00,0.0011
3715.00,0.0011
3714.00,0.0010
3713.00,0.0010
3712.00,0.0010
3711.00,0.0010
3710.00,0.0010
3709.00,0.0010
3708.00,0.0010
3707.00,0.0010
3706.00,0.0010
3705.00,0.0011
3704.00,0.0011
3703.00,0.0011
3702.00,0.0011
3701.00,0.0011
3700.00,0.0011
3699.00,0.0011
3698.00,0.0011
3697.00,0.0011
3696.00,0.0011
3695.00,0.0011
3694.00,0.0011
3693.00,0.0010
3692.00,0.0010
3691.00,0.0009
3690.00,0.0009
3689.00,0.0009
3688.00,0.0008
3687.00,0.0009
3686.00,0.0009
3685.00,0.0009
3684.00,0.0010
3683.00,0.0010
3682.00,0.0010
3681.00,0.0010
3680.00,0.0010
3679.00,0.0010
3678.00,0.0010
3677.00,0.0010
3676.00,0.0010
3675.00,0.0010
3674.00,0.0009
3673.00,0.0009
3672.00,0.0009
3671.00,0.0008
3670.00,0.0009
3669.00,0.0009
3668.00,0.0009
3667.00,0.0010
3666.00,0.0009
3665.00,0.0009
3664.00,0.0009
3663.00,0.0010
3662.00,0.0010
3661.00,0.0010
3660.00,0.0010
3659.00,0.0010
3658.00,0.0010
3657.00,0.0010
3656.00,0.0010
3655.00,0.0010
3654.00,0.0010
3653.00,0.0009
3652.00,0.0009
3651.00,0.0009
3650.00,0.0010
3649.00,0.0010
3648.00,0.0010
3647.00,0.0010
3646.00,0.0010
3645.00,0.0010
3644.00,0.0010
3643.00,0.0011
3642.00,0.0011
3641.00,0.0011
3640.00,0.0011
3639.00,0.0011
3638.00,0.0010
3637.00,0.0010
3636.00,0.0010
3635.00,0.0010
3634.00,0.0011
3633.00,0.0011
3632.00,0.0011
3631.00,0.0011
3630.00,0.0010
3629.00,0.0010
3628.00,0.0010
3627.00,0.0010
3626.00,0.0010
3625.00,0.0010
3624.00,0.0010
3623.00,0.0010
3622.00,0.0011
3621.00,0.0011
3620.00,0.0011
3619.00,0.0011
3618.00,0.0011
3617.00,0.0010
3616.00,0.0010
3615.00,0.0010
3614.00,0.0010
3613.00,0.0010
3612.00,0.0010
3611.00,0.0010
3610.00,0.0010
3609.00,0.0010
3608.00,0.0010
3607.00,0.0010
3606.00,0.0011
3605.00,0.0011
3604.00,0.0011
3603.00,0.0011
3602.00,0.0011
3601.00,0.0011
3600.00,0.0011
3599.00,0.0011
3598.00,0.0011
3597.00,0.0011
3596.00,0.0011
3595.00,0.0011
3594.00,0.0011
3593.00,0.0011
3592.00,0.0011
3591.00,0.0011
3590.00,0.0011
3589.00,0.0011
3588.00,0.0011
3587.00,0.0011
3586.00,0.0011
3585.00,0.0011
3584.00,0.0011
3583.00,0.0011
3582.00,0.0011
3581.00,0.0011
3580.00,0.0012
3579.00,0.0012
3578.00,0.0012
3577.00,0.0012
3576.00,0.0012
3575.00,0.0012
3574.00,0.0012
3573.00,0.0012
3572.00,0.0012
3571.00,0.0012
3570.00,0.0012
3569.00,0.0012
3568.00,0.0012
3567.00,0.0012
3566.00,0.0012
3565.00,0.0011
3564.00,0.0011
3563.00,0.0011
3562.00,0.0011
3561.00,0.0012
3560.00,0.0012
3559.00,0.0012
3558.00,0.0013
3557.00,0.0013
3556.00,0.0013
3555.00,0.0013
3554.00,0.0013
3553.00,0.0013
3552.00,0.0013
3551.00,0.0013
3550.00,0.0013
3549.00,0.0013
3548.00,0.0013
3547.00,0.0013
3546.00,0.0013
3545.00,0.0014
3544.00,0.0014
3543.00,0.0014
3542.00,0.0014
3541.00,0.0014
3540.00,0.0015
3539.00,0.0015
3538.00,0.0015
3537.00,0.0015
3536.00,0.0015
3535.00,0.0015
3534.00,0.0014
3533.00,0.0015
3532.00,0.0015
3531.00,0.0015
3530.00,0.0015
3529.00,0.0015
3528.00,0.0015
3527.00,0.0015
3526.00,0.0015
3525.00,0.0015
3524.00,0.0015
3523.00,0.0015
3522.00,0.0015
3521.00,0.0015
3520.00,0.0015
3519.00,0.0016
3518.00,0.0016
3517.00,0.0016
3516.00,0.0016
3515.00,0.0016
3514.00,0.0016
3513.00,0.0016
3512.00,0.0016
3511.00,0.0016
3510.00,0.0016
3509.00,0.0016
3508.00,0.0016
3507.00,0.0016
3506.00,0.0016
3505.00,0.0016
3504.00,0.0016
3503.00,0.0016
3502.00,0.0017
3501.00,0.0017
3500.00,0.0017
3499.00,0.0016
3498.00,0.0016
3497.00,0.0016
3496.00,0.0016
3495.00,0.0016
3494.00,0.0017
3493.00,0.0017
3492.00,0.0017
3491.00,0.0017
3490.00,0.0017
3489.00,0.0017
3488.00,0.0018
3487.00,0.0018
3486.00,0.0018
3485.00,0.0018
3484.00,0.0018
3483.00,0.0018
3482.00,0.0018
3481.00,0.0018
3480.00,0.0018
3479.00,0.0018
3478.00,0.0018
3477.00,0.0018
3476.00,0.0018
3475.00,0.0018
3474.00,0.0018
3473.00,0.0018
3472.00,0.0018
3471.00,0.0018
3470.00,0.0018
3469.00,0.0018
3468.00,0.0018
3467.00,0.0018
3466.00,0.0018
3465.00,0.0018
3464.00,0.0018
3463.00,0.0018
3462.00,0.0018
3461.00,0.0018
3460.00,0.0018
3459.00,0.0018
3458.00,0.0019
3457.00,0.0019
3456.00,0.0019
3455.00,0.0019
3454.00,0.0019
3453.00,0.0019
3452.00,0.0019
3451.00,0.0019
3450.00,0.0019
3449.00,0.0019
3448.00,0.0019
3447.00,0.0020
3446.00,0.0020
3445.00,0.0020
3444.00,0.0020
3443.00,0.0020
3442.00,0.0020
3441.00,0.0020
3440.00,0.0020
3439.00,0.0020
3438.00,0.0020
3437.00,0.0019
3436.00,0.0019
3435.00,0.0019
3434.00,0.0019
3433.00,0.0019
3432.00,0.0019
3431.00,0.0019
3430.00,0.0019
3429.00,0.0019
3428.00,0.0019
3427.00,0.0019
3426.00,0.0019
3425.00,0.0019
3424.00,0.0019
3423.00,0.0019
3422.00,0.0019
3421.00,0.0019
3420.00,0.0019
3419.00,0.0019
3418.00,0.0019
3417.00,0.0019
3416.00,0.0019
3415.00,0.0019
3414.00,0.0019
3413.00,0.0019
3412.00,0.0020
3411.00,0.0020
3410.00,0.0020
3409.00,0.0020
3408.00,0.0020
3407.00,0.0020
3406.00,0.0019
3405.00,0.0019
3404.00,0.0019
3403.00,0.0019
3402.00,0.0019
3401.00,0.0019
3400.00,0.0019
3399.00,0.0019
3398.00,0.0019
3397.00,0.0019
3396.00,0.0019
3395.00,0.0019
3394.00,0.0019
3393.00,0.0019
3392.00,0.0019
3391.00,0.0019
3390.00,0.0019
3389.00,0.0019
3388.00,0.0019
3387.00,0.0019
3386.00,0.0019
3385.00,0.0019
3384.00,0.0019
3383.00,0.0020
3382.00,0.0020
3381.00,0.0020
3380.00,0.0020
3379.00,0.0019
3378.00,0.0019
3377.00,0.0019
3376.00,0.0019
3375.00,0.0019
3374.00,0.0020
3373.00,0.0020
3372.00,0.0020
3371.00,0.0020
3370.00,0.0019
3369.00,0.0019
3368.00,0.0019
3367.00,0.0019
3366.00,0.0019
3365.00,0.0019
3364.00,0.0019
3363.00,0.0019
3362.00,0.0019
3361.00,0.0019
3360.00,0.0019
3359.00,0.0019
3358.00,0.0019
3357.00,0.0019
3356.00,0.0019
3355.00,0.0019
3354.00,0.0019
3353.00,0.0019
3352.00,0.0019
3351.00,0.0019
3350.00,0.0019
3349.00,0.0020
3348.00,0.0020
3347.00,0.0020
3346.00,0.0020
3345.00,0.0020
3344.00,0.0020
3343.00,0.0019
3342.00,0.0019
3341.00,0.0019
3340.00,0.0019
3339.00,0.0019
3338.00,0.0019
3337.00,0.0019
3336.00,0.0020
3335.00,0.0020
3334.00,0.0020
3333.00,0.0020
3332.00,0.0020
3331.00,0.0020
3330.00,0.0020
3329.00,0.0020
3328.00,0.0020
3327.00,0.0019
3326.00,0.0019
3325.00,0.0019
3324.00,0.0019
3323.00,0.0019
3322.00,0.0019
3321.00,0.0019
3320.00,0.0019
3319.00,0.0019
3318.00,0.0019
3317.00,0.0019
3316.00,0.0019
3315.00,0.0019
3314.00,0.0019
3313.00,0.0019
3312.00,0.0019
3311.00,0.0019
3310.00,0.0019
3309.00,0.0019
3308.00,0.0019
3307.00,0.0019
3306.00,0.0019
3305.00,0.0019
3304.00,0.0019
3303.00,0.0019
3302.00,0.0019
3301.00,0.0019
3300.00,0.0019
3299.00,0.0019
3298.00,0.0019
3297.00,0.0019
3296.00,0.0019
3295.00,0.0018
3294.00,0.0018
3293.00,0.0018
3292.00,0.0019
3291.00,0.0019
3290.00,0.0019
3289.00,0.0019
3288.00,0.0019
3287.00,0.0019
3286.00,0.0019
3285.00,0.0019
3284.00,0.0019
3283.00,0.0019
3282.00,0.0019
3281.00,0.0019
3280.00,0.0019
3279.00,0.0019
3278.00,0.0019
3277.00,0.0019
3276.00,0.0019
3275.00,0.0019
3274.00,0.0019
3273.00,0.0019
3272.00,0.0019
3271.00,0.0019
3270.00,0.0019
3269.00,0.0019
3268.00,0.0019
3267.00,0.0019
3266.00,0.0019
3265.00,0.0019
3264.00,0.0019
3263.00,0.0019
3262.00,0.0019
3261.00,0.0019
3260.00,0.0019
3259.00,0.0019
3258.00,0.0019
3257.00,0.0019
3256.00,0.0018
3255.00,0.0018
3254.00,0.0018
3253.00,0.0019
3252.00,0.0019
3251.00,0.0019
3250.00,0.0018
3249.00,0.0018
3248.00,0.0018
3247.00,0.0018
3246.00,0.0018
3245.00,0.0018
3244.00,0.0018
3243.00,0.0018
3242.00,0.0018
3241.00,0.0018
3240.00,0.0018
3239.00,0.0018
3238.00,0.0018
3237.00,0.0018
3236.00,0.0018
3235.00,0.0018
3234.00,0.0018
3233.00,0.0018
3232.00,0.0018
3231.00,0.0018
3230.00,0.0018
3229.00,0.0018
3228.00,0.0018
3227.00,0.0018
3226.00,0.0018
3225.00,0.0018
3224.00,0.0018
3223.00,0.0018
3222.00,0.0018
3221.00,0.0018
3220.00,0.0018
3219.00,0.0018
3218.00,0.0018
3217.00,0.0018
3216.00,0.0018
3215.00,0.0018
3214.00,0.0018
3213.00,0.0018
3212.00,0.0019
3211.00,0.0019
3210.00,0.0019
3209.00,0.0019
3208.00,0.0019
3207.00,0.0019
3206.00,0.0019
3205.00,0.0019
3204.00,0.0019
3203.00,0.0019
3202.00,0.0019
3201.00,0.0019
3200.00,0.0019
3199.00,0.0019
3198.00,0.0019
3197.00,0.0019
3196.00,0.0019
3195.00,0.0018
3194.00,0.0018
3193.00,0.0018
3192.00,0.0018
3191.00,0.0018
3190.00,0.0018
3189.00,0.0018
3188.00,0.0018
3187.00,0.0018
3186.00,0.0018
3185.00,0.0017
3184.00,0.0017
3183.00,0.0017
3182.00,0.0017
3181.00,0.0017
3180.00,0.0017
3179.00,0.0017
3178.00,0.0017
3177.00,0.0017
3176.00,0.0017
3175.00,0.0018
3174.00,0.0018
3173.00,0.0018
3172.00,0.0018
3171.00,0.0019
3170.00,0.0019
3169.00,0.0019
3168.00,0.0019
3167.00,0.0019
3166.00,0.0020
3165.00,0.0020
3164.00,0.0020
3163.00,0.0020
3162.00,0.0020
3161.00,0.0020
3160.00,0.0019
3159.00,0.0019
3158.00,0.0019
3157.00,0.0018
3156.00,0.0018
3155.00,0.0018
3154.00,0.0018
3153.00,0.0018
3152.00,0.0018
3151.00,0.0018
3150.00,0.0018
3149.00,0.0018
3148.00,0.0017
3147.00,0.0017
3146.00,0.0017
3145.00,0.0017
3144.00,0.0017
3143.00,0.0017
3142.00,0.0017
3141.00,0.0017
3140.00,0.0017
3139.00,0.0017
3138.00,0.0017
3137.00,0.0017
3136.00,0.0017
3135.00,0.0017
3134.00,0.0017
3133.00,0.0018
3132.00,0.0018
3131.00,0.0018
3130.00,0.0018
3129.00,0.0018
3128.00,0.0018
3127.00,0.0018
3126.00,0.0018
3125.00,0.0018
3124.00,0.0018
3123.00,0.0019
3122.00,0.0019
3121.00,0.0019
3120.00,0.0020
3119.00,0.0020
3118.00,0.0021
3117.00,0.0022
3116.00,0.0023
3115.00,0.0025
3114.00,0.0026
3113.00,0.0028
3112.00,0.0030
3111.00,0.0032
3110.00,0.0035
3109.00,0.0037
3108.00,0.0040
3107.00,0.0042
3106.00,0.0045
3105.00,0.0046
3104.00,0.0047
3103.00,0.0048
3102.00,0.0048
3101.00,0.0047
3100.00,0.0046
3099.00,0.0046
3098.00,0.0045
3097.00,0.0045
3096.00,0.0046
3095.00,0.0047
3094.00,0.0050
3093.00,0.0053
3092.00,0.0058
3091.00,0.0063
3090.00,0.0070
3089.00,0.0078
3088.00,0.0086
3087.00,0.0096
3086.00,0.0104
3085.00,0.0112
3084.00,0.0117
3083.00,0.0120
3082.00,0.0120
3081.00,0.0118
3080.00,0.0113
3079.00,0.0107
3078.00,0.0101
3077.00,0.0096
3076.00,0.0092
3075.00,0.0090
3074.00,0.0088
3073.00,0.0088
3072.00,0.0090
3071.00,0.0092
3070.00,0.0097
3069.00,0.0102
3068.00,0.0109
3067.00,0.0117
3066.00,0.0126
3065.00,0.0135
3064.00,0.0145
3063.00,0.0153
3062.00,0.0160
3061.00,0.0165
3060.00,0.0166
3059.00,0.0165
3058.00,0.0160
3057.00,0.0153
3056.00,0.0144
3055.00,0.0134
3054.00,0.0125
3053.00,0.0116
3052.00,0.0109
3051.00,0.0102
3050.00,0.0097
3049.00,0.0092
3048.00,0.0088
3047.00,0.0086
3046.00,0.0085
3045.00,0.0085
3044.00,0.0086
3043.00,0.0088
3042.00,0.0092
3041.00,0.0096
3040.00,0.0102
3039.00,0.0109
3038.00,0.0118
3037.00,0.0128
3036.00,0.0140
3035.00,0.0155
3034.00,0.0172
3033.00,0.0192
3032.00,0.0213
3031.00,0.0236
3030.00,0.0259
3029.00,0.0281
3028.00,0.0299
3027.00,0.0313
3026.00,0.0320
3025.00,0.0318
3024.00,0.0309
3023.00,0.0291
3022.00,0.0268
3021.00,0.0242
3020.00,0.0214
3019.00,0.0188
3018.00,0.0165
3017.00,0.0144
3016.00,0.0127
3015.00,0.0113
3014.00,0.0102
3013.00,0.0094
3012.00,0.0088
3011.00,0.0083
3010.00,0.0080
3009.00,0.0079
3008.00,0.0079
3007.00,0.0080
3006.00,0.0082
3005.00,0.0085
3004.00,0.0087
3003.00,0.0088
3002.00,0.0089
3001.00,0.0087
3000.00,0.0084
2999.00,0.0080
2998.00,0.0074
2997.00,0.0068
2996.00,0.0062
2995.00,0.0057
2994.00,0.0052
2993.00,0.0049
2992.00,0.0046
2991.00,0.0045
2990.00,0.0043
2989.00,0.0042
2988.00,0.0042
2987.00,0.0042
2986.00,0.0041
2985.00,0.0040
2984.00,0.0039
2983.00,0.0038
2982.00,0.0037
2981.00,0.0037
2980.00,0.0038
2979.00,0.0039
2978.00,0.0041
2977.00,0.0042
2976.00,0.0043
2975.00,0.0044
2974.00,0.0045
2973.00,0.0046
2972.00,0.0048
2971.00,0.0049
2970.00,0.0051
2969.00,0.0053
2968.00,0.0055
2967.00,0.0057
2966.00,0.0060
2965.00,0.0063
2964.00,0.0065
2963.00,0.0068
2962.00,0.0071
2961.00,0.0074
2960.00,0.0078
2959.00,0.0081
2958.00,0.0085
2957.00,0.0089
2956.00,0.0093
2955.00,0.0097
2954.00,0.0102
2953.00,0.0106
2952.00,0.0111
2951.00,0.0116
2950.00,0.0122
2949.00,0.0129
2948.00,0.0136
2947.00,0.0143
2946.00,0.0152
2945.00,0.0160
2944.00,0.0169
2943.00,0.0179
2942.00,0.0190
2941.00,0.0201
2940.00,0.0213
2939.00,0.0225
2938.00,0.0238
2937.00,0.0252
2936.00,0.0265
2935.00,0.0280
2934.00,0.0294
2933.00,0.0308
2932.00,0.0322
2931.00,0.0336
2930.00,0.0349
2929.00,0.0361
2928.00,0.0372
2927.00,0.0381
2926.00,0.0389
2925.00,0.0395
2924.00,0.0400
2923.00,0.0403
2922.00,0.0404
2921.00,0.0403
2920.00,0.0401
2919.00,0.0397
2918.00,0.0392
2917.00,0.0386
2916.00,0.0379
2915.00,0.0370
2914.00,0.0361
2913.00,0.0352
2912.00,0.0342
2911.00,0.0332
2910.00,0.0322
2909.00,0.0312
2908.00,0.0302
2907.00,0.0292
2906.00,0.0281
2905.00,0.0271
2904.00,0.0261
2903.00,0.0250
2902.00,0.0240
2901.00,0.0230
2900.00,0.0220
2899.00,0.0210
2898.00,0.0201
2897.00,0.0193
2896.00,0.0185
2895.00,0.0178
2894.00,0.0172
2893.00,0.0166
2892.00,0.0161
2891.00,0.0156
2890.00,0.0151
2889.00,0.0147
2888.00,0.0143
2887.00,0.0140
2886.00,0.0137
2885.00,0.0133
2884.00,0.0130
2883.00,0.0127
2882.00,0.0124
2881.00,0.0121
2880.00,0.0118
2879.00,0.0116
2878.00,0.0113
2877.00,0.0111
2876.00,0.0109
2875.00,0.0108
2874.00,0.0106
2873.00,0.0105
2872.00,0.0104
2871.00,0.0103
2870.00,0.0103
2869.00,0.0103
2868.00,0.0103
2867.00,0.0104
2866.00,0.0106
2865.00,0.0109
2864.00,0.0112
2863.00,0.0116
2862.00,0.0120
2861.00,0.0126
2860.00,0.0131
2859.00,0.0137
2858.00,0.0144
2857.00,0.0150
2856.00,0.0156
2855.00,0.0162
2854.00,0.0167
2853.00,0.0171
2852.00,0.0175
2851.00,0.0177
2850.00,0.0178
2849.00,0.0177
2848.00,0.0174
2847.00,0.0170
2846.00,0.0165
2845.00,0.0158
2844.00,0.0149
2843.00,0.0140
2842.00,0.0130
2841.00,0.0120
2840.00,0.0109
2839.00,0.0099
2838.00,0.0090
2837.00,0.0082
2836.00,0.0075
2835.00,0.0069
2834.00,0.0063
2833.00,0.0059
2832.00,0.0055
2831.00,0.0052
2830.00,0.0049
2829.00,0.0047
2828.00,0.0046
2827.00,0.0044
2826.00,0.0043
2825.00,0.0042
2824.00,0.0040
2823.00,0.0040
2822.00,0.0039
2821.00,0.0038
2820.00,0.0038
2819.00,0.0037
2818.00,0.0037
2817.00,0.0037
2816.00,0.0037
2815.00,0.0036
2814.00,0.0036
2813.00,0.0036
2812.00,0.0035
2811.00,0.0035
2810.00,0.0035
2809.00,0.0034
2808.00,0.0034
2807.00,0.0034
2806.00,0.0033
2805.00,0.0033
2804.00,0.0032
2803.00,0.0032
2802.00,0.0032
2801.00,0.0032
2800.00,0.0031
2799.00,0.0031
2798.00,0.0031
2797.00,0.0030
2796.00,0.0030
2795.00,0.0030
2794.00,0.0029
2793.00,0.0029
2792.00,0.0028
2791.00,0.0028
2790.00,0.0028
2789.00,0.0028
2788.00,0.0028
2787.00,0.0028
2786.00,0.0028
2785.00,0.0028
2784.00,0.0028
2783.00,0.0027
2782.00,0.0027
2781.00,0.0027
2780.00,0.0027
2779.00,0.0027
2778.00,0.0027
2777.00,0.0027
2776.00,0.0027
2775.00,0.0026
2774.00,0.0026
2773.00,0.0026
2772.00,0.0026
2771.00,0.0026
2770.00,0.0025
2769.00,0.0025
2768.00,0.0025
2767.00,0.0024
2766.00,0.0024
2765.00,0.0024
2764.00,0.0024
2763.00,0.0024
2762.00,0.0024
2761.00,0.0024
2760.00,0.0024
2759.00,0.0024
2758.00,0.0024
2757.00,0.0024
2756.00,0.0024
2755.00,0.0024
2754.00,0.0024
2753.00,0.0024
2752.00,0.0023
2751.00,0.0023
2750.00,0.0023
2749.00,0.0023
2748.00,0.0023
2747.00,0.0023
2746.00,0.0023
2745.00,0.0023
2744.00,0.0023
2743.00,0.0023
2742.00,0.0023
2741.00,0.0023
2740.00,0.0023
2739.00,0.0023
2738.00,0.0023
2737.00,0.0023
2736.00,0.0023
2735.00,0.0023
2734.00,0.0023
2733.00,0.0023
2732.00,0.0024
2731.00,0.0024
2730.00,0.0024
2729.00,0.0024
2728.00,0.0024
2727.00,0.0024
2726.00,0.0024
2725.00,0.0023
2724.00,0.0023
2723.00,0.0023
2722.00,0.0023
2721.00,0.0023
2720.00,0.0023
2719.00,0.0023
2718.00,0.0024
2717.00,0.0023
2716.00,0.0023
2715.00,0.0023
2714.00,0.0023
2713.00,0.0023
2712.00,0.0023
2711.00,0.0023
2710.00,0.0023
2709.00,0.0023
2708.00,0.0023
2707.00,0.0023
2706.00,0.0023
2705.00,0.0023
2704.00,0.0023
2703.00,0.0023
2702.00,0.0023
2701.00,0.0023
2700.00,0.0023
2699.00,0.0023
2698.00,0.0023
2697.00,0.0023
2696.00,0.0023
2695.00,0.0023
2694.00,0.0022
2693.00,0.0022
2692.00,0.0023
2691.00,0.0023
2690.00,0.0023
2689.00,0.0023
2688.00,0.0023
2687.00,0.0023
2686.00,0.0023
2685.00,0.0023
2684.00,0.0023
2683.00,0.0022
2682.00,0.0022
2681.00,0.0022
2680.00,0.0022
2679.00,0.0023
2678.00,0.0023
2677.00,0.0023
2676.00,0.0023
2675.00,0.0023
2674.00,0.0023
2673.00,0.0023
2672.00,0.0023
2671.00,0.0023
2670.00,0.0023
2669.00,0.0023
2668.00,0.0023
2667.00,0.0023
2666.00,0.0024
2665.00,0.0024
2664.00,0.0025
2663.00,0.0025
2662.00,0.0026
2661.00,0.0026
2660.00,0.0026
2659.00,0.0027
2658.00,0.0027
2657.00,0.0027
2656.00,0.0027
2655.00,0.0027
2654.00,0.0028
2653.00,0.0028
2652.00,0.0028
2651.00,0.0028
2650.00,0.0028
2649.00,0.0028
2648.00,0.0028
2647.00,0.0028
2646.00,0.0028
2645.00,0.0028
2644.00,0.0028
2643.00,0.0028
2642.00,0.0028
2641.00,0.0028
2640.00,0.0028
2639.00,0.0029
2638.00,0.0029
2637.00,0.0029
2636.00,0.0029
2635.00,0.0029
2634.00,0.0029
2633.00,0.0029
2632.00,0.0029
2631.00,0.0029
2630.00,0.0029
2629.00,0.0028
2628.00,0.0028
2627.00,0.0027
2626.00,0.0027
2625.00,0.0027
2624.00,0.0027
2623.00,0.0026
2622.00,0.0026
2621.00,0.0026
2620.00,0.0026
2619.00,0.0026
2618.00,0.0026
2617.00,0.0025
2616.00,0.0025
2615.00,0.0025
2614.00,0.0025
2613.00,0.0025
2612.00,0.0025
2611.00,0.0025
2610.00,0.0025
2609.00,0.0025
2608.00,0.0026
2607.00,0.0026
2606.00,0.0026
2605.00,0.0026
2604.00,0.0026
2603.00,0.0026
2602.00,0.0025
2601.00,0.0025
2600.00,0.0025
2599.00,0.0025
2598.00,0.0024
2597.00,0.0024
2596.00,0.0023
2595.00,0.0023
2594.00,0.0023
2593.00,0.0023
2592.00,0.0022
2591.00,0.0022
2590.00,0.0022
2589.00,0.0022
2588.00,0.0022
2587.00,0.0022
2586.00,0.0022
2585.00,0.0022
2584.00,0.0022
2583.00,0.0022
2582.00,0.0023
2581.00,0.0023
2580.00,0.0023
2579.00,0.0022
2578.00,0.0022
2577.00,0.0021
2576.00,0.0020
2575.00,0.0020
2574.00,0.0020
2573.00,0.0020
2572.00,0.0020
2571.00,0.0020
2570.00,0.0020
2569.00,0.0019
2568.00,0.0019
2567.00,0.0019
2566.00,0.0019
2565.00,0.0019
2564.00,0.0019
2563.00,0.0019
2562.00,0.0019
2561.00,0.0019
2560.00,0.0019
2559.00,0.0019
2558.00,0.0019
2557.00,0.0019
2556.00,0.0019
2555.00,0.0019
2554.00,0.0019
2553.00,0.0019
2552.00,0.0019
2551.00,0.0019
2550.00,0.0019
2549.00,0.0019
2548.00,0.0019
2547.00,0.0018
2546.00,0.0018
2545.00,0.0018
2544.00,0.0018
2543.00,0.0018
2542.00,0.0018
2541.00,0.0018
2540.00,0.0017
2539.00,0.0017
2538.00,0.0017
2537.00,0.0017
2536.00,0.0018
2535.00,0.0018
2534.00,0.0018
2533.00,0.0018
2532.00,0.0018
2531.00,0.0018
2530.00,0.0017
2529.00,0.0017
2528.00,0.0017
2527.00,0.0017
2526.00,0.0017
2525.00,0.0017
2524.00,0.0018
2523.00,0.0018
2522.00,0.0017
2521.00,0.0017
2520.00,0.0017
2519.00,0.0017
2518.00,0.0017
2517.00,0.0017
2516.00,0.0017
2515.00,0.0017
2514.00,0.0017
2513.00,0.0017
2512.00,0.0017
2511.00,0.0017
2510.00,0.0017
2509.00,0.0017
2508.00,0.0017
2507.00,0.0017
2506.00,0.0016
2505.00,0.0016
2504.00,0.0016
2503.00,0.0016
2502.00,0.0016
2501.00,0.0016
2500.00,0.0016
2499.00,0.0016
2498.00,0.0015
2497.00,0.0015
2496.00,0.0015
2495.00,0.0015
2494.00,0.0015
2493.00,0.0015
2492.00,0.0015
2491.00,0.0015
2490.00,0.0015
2489.00,0.0015
2488.00,0.0015
2487.00,0.0015
2486.00,0.0015
2485.00,0.0015
2484.00,0.0015
2483.00,0.0015
2482.00,0.0015
2481.00,0.0015
2480.00,0.0015
2479.00,0.0015
2478.00,0.0014
2477.00,0.0014
2476.00,0.0014
2475.00,0.0013
2474.00,0.0013
2473.00,0.0014
2472.00,0.0014
2471.00,0.0014
2470.00,0.0015
2469.00,0.0015
2468.00,0.0015
2467.00,0.0014
2466.00,0.0014
2465.00,0.0014
2464.00,0.0014
2463.00,0.0014
2462.00,0.0014
2461.00,0.0014
2460.00,0.0014
2459.00,0.0015
2458.00,0.0015
2457.00,0.0015
2456.00,0.0016
2455.00,0.0016
2454.00,0.0016
2453.00,0.0016
2452.00,0.0015
2451.00,0.0015
2450.00,0.0015
2449.00,0.0014
2448.00,0.0014
2447.00,0.0014
2446.00,0.0014
2445.00,0.0014
2444.00,0.0014
2443.00,0.0014
2442.00,0.0014
2441.00,0.0014
2440.00,0.0014
2439.00,0.0014
2438.00,0.0013
2437.00,0.0013
2436.00,0.0013
2435.00,0.0013
2434.00,0.0013
2433.00,0.0012
2432.00,0.0012
2431.00,0.0011
2430.00,0.0011
2429.00,0.0010
2428.00,0.0010
2427.00,0.0010
2426.00,0.0010
2425.00,0.0010
2424.00,0.0010
2423.00,0.0010
2422.00,0.0010
2421.00,0.0010
2420.00,0.0010
2419.00,0.0010
2418.00,0.0011
2417.00,0.0011
2416.00,0.0011
2415.00,0.0011
2414.00,0.0011
2413.00,0.0011
2412.00,0.0011
2411.00,0.0011
2410.00,0.0011
2409.00,0.0010
2408.00,0.0010
2407.00,0.0009
2406.00,0.0009
2405.00,0.0008
2404.00,0.0008
2403.00,0.0008
2402.00,0.0008
2401.00,0.0009
2400.00,0.0009
2399.00,0.0009
2398.00,0.0009
2397.00,0.0009
2396.00,0.0009
2395.00,0.0009
2394.00,0.0009
2393.00,0.0009
2392.00,0.0009
2391.00,0.0009
2390.00,0.0009
2389.00,0.0009
2388.00,0.0009
2387.00,0.0009
2386.00,0.0009
2385.00,0.0009
2384.00,0.0009
2383.00,0.0009
2382.00,0.0009
2381.00,0.0009
2380.00,0.0010
2379.00,0.0010
2378.00,0.0010
2377.00,0.0010
2376.00,0.0010
2375.00,0.0010
2374.00,0.0010
2373.00,0.0010
2372.00,0.0010
2371.00,0.0010
2370.00,0.0010
2369.00,0.0010
2368.00,0.0010
2367.00,0.0011
2366.00,0.0011
2365.00,0.0011
2364.00,0.0012
2363.00,0.0012
2362.00,0.0013
2361.00,0.0014
2360.00,0.0015
2359.00,0.0015
2358.00,0.0015
2357.00,0.0015
2356.00,0.0015
2355.00,0.0015
2354.00,0.0015
2353.00,0.0014
2352.00,0.0014
2351.00,0.0015
2350.00,0.0015
2349.00,0.0016
2348.00,0.0017
2347.00,0.0017
2346.00,0.0018
2345.00,0.0018
2344.00,0.0018
2343.00,0.0019
2342.00,0.0019
2341.00,0.0020
2340.00,0.0021
2339.00,0.0021
2338.00,0.0021
2337.00,0.0021
2336.00,0.0021
2335.00,0.0021
2334.00,0.0020
2333.00,0.0020
2332.00,0.0020
2331.00,0.0019
2330.00,0.0019
2329.00,0.0021
2328.00,0.0025
2327.00,0.0030
2326.00,0.0033
2325.00,0.0034
2324.00,0.0033
2323.00,0.0031
2322.00,0.0029
2321.00,0.0028
2320.00,0.0027
2319.00,0.0026
2318.00,0.0025
2317.00,0.0025
2316.00,0.0025
2315.00,0.0025
2314.00,0.0025
2313.00,0.0024
2312.00,0.0024
2311.00,0.0023
2310.00,0.0023
2309.00,0.0023
2308.00,0.0022
2307.00,0.0022
2306.00,0.0022
2305.00,0.0021
2304.00,0.0021
2303.00,0.0021
2302.00,0.0020
2301.00,0.0020
2300.00,0.0020
2299.00,0.0020
2298.00,0.0020
2297.00,0.0021
2296.00,0.0022
2295.00,0.0022
2294.00,0.0023
2293.00,0.0024
2292.00,0.0024
2291.00,0.0025
2290.00,0.0026
2289.00,0.0026
2288.00,0.0026
2287.00,0.0026
2286.00,0.0026
2285.00,0.0025
2284.00,0.0024
2283.00,0.0023
2282.00,0.0021
2281.00,0.0020
2280.00,0.0019
2279.00,0.0018
2278.00,0.0018
2277.00,0.0018
2276.00,0.0018
2275.00,0.0018
2274.00,0.0018
2273.00,0.0018
2272.00,0.0018
2271.00,0.0017
2270.00,0.0017
2269.00,0.0016
2268.00,0.0015
2267.00,0.0015
2266.00,0.0014
2265.00,0.0014
2264.00,0.0015
2263.00,0.0016
2262.00,0.0017
2261.00,0.0017
2260.00,0.0017
2259.00,0.0017
2258.00,0.0016
2257.00,0.0015
2256.00,0.0014
2255.00,0.0013
2254.00,0.0013
2253.00,0.0013
2252.00,0.0013
2251.00,0.0013
2250.00,0.0013
2249.00,0.0013
2248.00,0.0013
2247.00,0.0014
2246.00,0.0014
2245.00,0.0014
2244.00,0.0014
2243.00,0.0013
2242.00,0.0013
2241.00,0.0013
2240.00,0.0013
2239.00,0.0013
2238.00,0.0012
2237.00,0.0012
2236.00,0.0012
2235.00,0.0012
2234.00,0.0012
2233.00,0.0013
2232.00,0.0014
2231.00,0.0014
2230.00,0.0013
2229.00,0.0013
2228.00,0.0012
2227.00,0.0011
2226.00,0.0010
2225.00,0.0010
2224.00,0.0010
2223.00,0.0010
2222.00,0.0010
2221.00,0.0011
2220.00,0.0012
2219.00,0.0012
2218.00,0.0012
2217.00,0.0012
2216.00,0.0012
2215.00,0.0011
2214.00,0.0010
2213.00,0.0009
2212.00,0.0009
2211.00,0.0009
2210.00,0.0010
2209.00,0.0010
2208.00,0.0011
2207.00,0.0011
2206.00,0.0011
2205.00,0.0010
2204.00,0.0010
2203.00,0.0010
2202.00,0.0011
2201.00,0.0011
2200.00,0.0011
2199.00,0.0012
2198.00,0.0012
2197.00,0.0011
2196.00,0.0011
2195.00,0.0011
2194.00,0.0011
2193.00,0.0012
2192.00,0.0012
2191.00,0.0012
2190.00,0.0013
2189.00,0.0013
2188.00,0.0014
2187.00,0.0014
2186.00,0.0013
2185.00,0.0011
2184.00,0.0008
2183.00,0.0005
2182.00,0.0003
2181.00,0.0004
2180.00,0.0006
2179.00,0.0008
2178.00,0.0009
2177.00,0.0008
2176.00,0.0007
2175.00,0.0006
2174.00,0.0006
2173.00,0.0007
2172.00,0.0009
2171.00,0.0012
2170.00,0.0014
2169.00,0.0017
2168.00,0.0019
2167.00,0.0020
2166.00,0.0022
2165.00,0.0024
2164.00,0.0026
2163.00,0.0026
2162.00,0.0019
2161.00,0.0005
2160.00,-0.0012
2159.00,-0.0025
2158.00,-0.0030
2157.00,-0.0029
2156.00,-0.0025
2155.00,-0.0022
2154.00,-0.0020
2153.00,-0.0018
2152.00,-0.0016
2151.00,-0.0014
2150.00,-0.0013
2149.00,-0.0012
2148.00,-0.0012
2147.00,-0.0013
2146.00,-0.0013
2145.00,-0.0013
2144.00,-0.0012
2143.00,-0.0011
2142.00,-0.0011
2141.00,-0.0011
2140.00,-0.0011
2139.00,-0.0012
2138.00,-0.0014
2137.00,-0.0016
2136.00,-0.0019
2135.00,-0.0020
2134.00,-0.0020
2133.00,-0.0019
2132.00,-0.0016
2131.00,-0.0014
2130.00,-0.0012
2129.00,-0.0009
2128.00,-0.0007
2127.00,-0.0006
2126.00,-0.0005
2125.00,-0.0004
2124.00,-0.0003
2123.00,-0.0002
2122.00,-0.0001
2121.00,-0.0000
2120.00,0.0001
2119.00,0.0002
2118.00,0.0003
2117.00,0.0005
2116.00,0.0006
2115.00,0.0007
2114.00,0.0008
2113.00,0.0007
2112.00,0.0007
2111.00,0.0007
2110.00,0.0007
2109.00,0.0007
2108.00,0.0007
2107.00,0.0007
2106.00,0.0007
2105.00,0.0007
2104.00,0.0007
2103.00,0.0007
2102.00,0.0007
2101.00,0.0006
2100.00,0.0006
2099.00,0.0005
2098.00,0.0004
2097.00,0.0003
2096.00,0.0001
2095.00,0.0001
2094.00,0.0001
2093.00,0.0002
2092.00,0.0003
2091.00,0.0004
2090.00,0.0005
2089.00,0.0005
2088.00,0.0005
2087.00,0.0006
2086.00,0.0007
2085.00,0.0007
2084.00,0.0007
2083.00,0.0007
2082.00,0.0007
2081.00,0.0008
2080.00,0.0008
2079.00,0.0009
2078.00,0.0009
2077.00,0.0008
2076.00,0.0008
2075.00,0.0007
2074.00,0.0007
2073.00,0.0006
2072.00,0.0006
2071.00,0.0006
2070.00,0.0006
2069.00,0.0005
2068.00,0.0005
2067.00,0.0003
2066.00,0.0003
2065.00,0.0002
2064.00,0.0003
2063.00,0.0003
2062.00,0.0003
2061.00,0.0002
2060.00,0.0002
2059.00,0.0001
2058.00,0.0001
2057.00,0.0002
2056.00,0.0003
2055.00,0.0005
2054.00,0.0009
2053.00,0.0013
2052.00,0.0017
2051.00,0.0017
2050.00,0.0012
2049.00,0.0007
2048.00,0.0003
2047.00,0.0001
2046.00,0.0000
2045.00,0.0001
2044.00,0.0002
2043.00,0.0004
2042.00,0.0005
2041.00,0.0006
2040.00,0.0006
2039.00,0.0007
2038.00,0.0008
2037.00,0.0008
2036.00,0.0007
2035.00,0.0004
2034.00,0.0001
2033.00,-0.0001
2032.00,-0.0003
2031.00,-0.0004
2030.00,-0.0005
2029.00,-0.0006
2028.00,-0.0007
2027.00,-0.0007
2026.00,-0.0006
2025.00,-0.0004
2024.00,-0.0003
2023.00,-0.0003
2022.00,-0.0004
2021.00,-0.0005
2020.00,-0.0006
2019.00,-0.0006
2018.00,-0.0006
2017.00,-0.0005
2016.00,-0.0003
2015.00,-0.0001
2014.00,-0.0000
2013.00,0.0000
2012.00,0.0000
2011.00,0.0000
2010.00,-0.0001
2009.00,-0.0003
2008.00,-0.0006
2007.00,-0.0008
2006.00,-0.0010
2005.00,-0.0011
2004.00,-0.0011
2003.00,-0.0009
2002.00,-0.0007
2001.00,-0.0005
2000.00,-0.0002
1999.00,-0.0001
1998.00,0.0001
1997.00,0.0002
1996.00,0.0003
1995.00,0.0006
1994.00,0.0008
1993.00,0.0009
1992.00,0.0010
1991.00,0.0011
1990.00,0.0011
1989.00,0.0011
1988.00,0.0011
1987.00,0.0012
1986.00,0.0014
1985.00,0.0016
1984.00,0.0019
1983.00,0.0022
1982.00,0.0024
1981.00,0.0024
1980.00,0.0020
1979.00,0.0013
1978.00,0.0005
1977.00,0.0001
1976.00,-0.0000
1975.00,0.0001
1974.00,0.0002
1973.00,0.0002
1972.00,0.0003
1971.00,0.0004
1970.00,0.0005
1969.00,0.0006
1968.00,0.0006
1967.00,0.0007
1966.00,0.0007
1965.00,0.0009
1964.00,0.0011
1963.00,0.0013
1962.00,0.0014
1961.00,0.0014
1960.00,0.0014
1959.00,0.0016
1958.00,0.0018
1957.00,0.0020
1956.00,0.0022
1955.00,0.0023
1954.00,0.0025
1953.00,0.0027
1952.00,0.0029
1951.00,0.0030
1950.00,0.0032
1949.00,0.0033
1948.00,0.0036
1947.00,0.0038
1946.00,0.0039
1945.00,0.0040
1944.00,0.0041
1943.00,0.0041
1942.00,0.0041
1941.00,0.0040
1940.00,0.0038
1939.00,0.0037
1938.00,0.0035
1937.00,0.0033
1936.00,0.0031
1935.00,0.0028
1934.00,0.0025
1933.00,0.0022
1932.00,0.0020
1931.00,0.0018
1930.00,0.0016
1929.00,0.0015
1928.00,0.0014
1927.00,0.0013
1926.00,0.0012
1925.00,0.0011
1924.00,0.0010
1923.00,0.0010
1922.00,0.0010
1921.00,0.0010
1920.00,0.0010
1919.00,0.0009
1918.00,0.0008
1917.00,0.0008
1916.00,0.0007
1915.00,0.0007
1914.00,0.0007
1913.00,0.0007
1912.00,0.0008
1911.00,0.0008
1910.00,0.0008
1909.00,0.0008
1908.00,0.0008
1907.00,0.0009
1906.00,0.0009
1905.00,0.0009
1904.00,0.0009
1903.00,0.0010
1902.00,0.0010
1901.00,0.0010
1900.00,0.0011
1899.00,0.0012
1898.00,0.0014
1897.00,0.0015
1896.00,0.0016
1895.00,0.0017
1894.00,0.0019
1893.00,0.0020
1892.00,0.0022
1891.00,0.0023
1890.00,0.0024
1889.00,0.0025
1888.00,0.0026
1887.00,0.0027
1886.00,0.0028
1885.00,0.0029
1884.00,0.0030
1883.00,0.0031
1882.00,0.0032
1881.00,0.0033
1880.00,0.0033
1879.00,0.0034
1878.00,0.0034
1877.00,0.0035
1876.00,0.0036
1875.00,0.0037
1874.00,0.0038
1873.00,0.0039
1872.00,0.0039
1871.00,0.0040
1870.00,0.0041
1869.00,0.0040
1868.00,0.0040
1867.00,0.0039
1866.00,0.0037
1865.00,0.0036
1864.00,0.0034
1863.00,0.0032
1862.00,0.0030
1861.00,0.0028
1860.00,0.0026
1859.00,0.0024
1858.00,0.0022
1857.00,0.0020
1856.00,0.0018
1855.00,0.0017
1854.00,0.0016
1853.00,0.0014
1852.00,0.0014
1851.00,0.0013
1850.00,0.0012
1849.00,0.0011
1848.00,0.0011
1847.00,0.0010
1846.00,0.0010
1845.00,0.0009
1844.00,0.0009
1843.00,0.0009
1842.00,0.0009
1841.00,0.0009
1840.00,0.0009
1839.00,0.0009
1838.00,0.0010
1837.00,0.0010
1836.00,0.0010
1835.00,0.0011
1834.00,0.0011
1833.00,0.0012
1832.00,0.0012
1831.00,0.0014
1830.00,0.0015
1829.00,0.0016
1828.00,0.0017
1827.00,0.0018
1826.00,0.0019
1825.00,0.0020
1824.00,0.0021
1823.00,0.0022
1822.00,0.0023
1821.00,0.0023
1820.00,0.0024
1819.00,0.0024
1818.00,0.0025
1817.00,0.0026
1816.00,0.0027
1815.00,0.0029
1814.00,0.0031
1813.00,0.0033
1812.00,0.0035
1811.00,0.0037
1810.00,0.0039
1809.00,0.0040
1808.00,0.0042
1807.00,0.0043
1806.00,0.0044
1805.00,0.0045
1804.00,0.0046
1803.00,0.0047
1802.00,0.0047
1801.00,0.0047
1800.00,0.0046
1799.00,0.0044
1798.00,0.0043
1797.00,0.0042
1796.00,0.0040
1795.00,0.0038
1794.00,0.0036
1793.00,0.0034
1792.00,0.0032
1791.00,0.0029
1790.00,0.0027
1789.00,0.0026
1788.00,0.0024
1787.00,0.0024
1786.00,0.0023
1785.00,0.0023
1784.00,0.0023
1783.00,0.0023
1782.00,0.0023
1781.00,0.0023
1780.00,0.0022
1779.00,0.0022
1778.00,0.0022
1777.00,0.0023
1776.00,0.0024
1775.00,0.0024
1774.00,0.0024
1773.00,0.0024
1772.00,0.0024
1771.00,0.0024
1770.00,0.0024
1769.00,0.0024
1768.00,0.0025
1767.00,0.0025
1766.00,0.0025
1765.00,0.0026
1764.00,0.0027
1763.00,0.0028
1762.00,0.0030
1761.00,0.0031
1760.00,0.0032
1759.00,0.0033
1758.00,0.0035
1757.00,0.0036
1756.00,0.0038
1755.00,0.0040
1754.00,0.0041
1753.00,0.0043
1752.00,0.0045
1751.00,0.0047
1750.00,0.0050
1749.00,0.0051
1748.00,0.0052
1747.00,0.0054
1746.00,0.0055
1745.00,0.0056
1744.00,0.0057
1743.00,0.0058
1742.00,0.0058
1741.00,0.0058
1740.00,0.0057
1739.00,0.0057
1738.00,0.0057
1737.00,0.0057
1736.00,0.0056
1735.00,0.0056
1734.00,0.0055
1733.00,0.0054
1732.00,0.0053
1731.00,0.0052
1730.00,0.0051
1729.00,0.0050
1728.00,0.0049
1727.00,0.0048
1726.00,0.0047
1725.00,0.0046
1724.00,0.0045
1723.00,0.0045
1722.00,0.0044
1721.00,0.0043
1720.00,0.0043
1719.00,0.0043
1718.00,0.0043
1717.00,0.0042
1716.00,0.0041
1715.00,0.0040
1714.00,0.0039
1713.00,0.0039
1712.00,0.0039
1711.00,0.0039
1710.00,0.0039
1709.00,0.0039
1708.00,0.0040
1707.00,0.0040
1706.00,0.0040
1705.00,0.0040
1704.00,0.0041
1703.00,0.0041
1702.00,0.0041
1701.00,0.0042
1700.00,0.0042
1699.00,0.0042
1698.00,0.0042
1697.00,0.0042
1696.00,0.0042
1695.00,0.0043
1694.00,0.0044
1693.00,0.0045
1692.00,0.0046
1691.00,0.0047
1690.00,0.0049
1689.00,0.0050
1688.00,0.0051
1687.00,0.0052
1686.00,0.0053
1685.00,0.0054
1684.00,0.0056
1683.00,0.0056
1682.00,0.0057
1681.00,0.0057
1680.00,0.0057
1679.00,0.0056
1678.00,0.0056
1677.00,0.0057
1676.00,0.0057
1675.00,0.0057
1674.00,0.0058
1673.00,0.0058
1672.00,0.0058
1671.00,0.0058
1670.00,0.0058
1669.00,0.0058
1668.00,0.0058
1667.00,0.0058
1666.00,0.0058
1665.00,0.0058
1664.00,0.0057
1663.00,0.0056
1662.00,0.0056
1661.00,0.0055
1660.00,0.0054
1659.00,0.0053
1658.00,0.0052
1657.00,0.0052
1656.00,0.0051
1655.00,0.0051
1654.00,0.0049
1653.00,0.0047
1652.00,0.0045
1651.00,0.0044
1650.00,0.0043
1649.00,0.0042
1648.00,0.0041
1647.00,0.0040
1646.00,0.0039
1645.00,0.0037
1644.00,0.0036
1643.00,0.0036
1642.00,0.0035
1641.00,0.0035
1640.00,0.0034
1639.00,0.0034
1638.00,0.0034
1637.00,0.0034
1636.00,0.0033
1635.00,0.0033
1634.00,0.0033
1633.00,0.0033
1632.00,0.0033
1631.00,0.0034
1630.00,0.0034
1629.00,0.0035
1628.00,0.0036
1627.00,0.0037
1626.00,0.0038
1625.00,0.0039
1624.00,0.0039
1623.00,0.0040
1622.00,0.0041
1621.00,0.0042
1620.00,0.0042
1619.00,0.0043
1618.00,0.0044
1617.00,0.0045
1616.00,0.0047
1615.00,0.0050
1614.00,0.0053
1613.00,0.0058
1612.00,0.0065
1611.00,0.0074
1610.00,0.0086
1609.00,0.0103
1608.00,0.0126
1607.00,0.0153
1606.00,0.0185
1605.00,0.0219
1604.00,0.0252
1603.00,0.0281
1602.00,0.0299
1601.00,0.0303
1600.00,0.0292
1599.00,0.0268
1598.00,0.0237
1597.00,0.0205
1596.00,0.0176
1595.00,0.0152
1594.00,0.0133
1593.00,0.0118
1592.00,0.0107
1591.00,0.0099
1590.00,0.0094
1589.00,0.0092
1588.00,0.0095
1587.00,0.0101
1586.00,0.0111
1585.00,0.0122
1584.00,0.0129
1583.00,0.0129
1582.00,0.0122
1581.00,0.0110
1580.00,0.0095
1579.00,0.0082
1578.00,0.0071
1577.00,0.0062
1576.00,0.0054
1575.00,0.0049
1574.00,0.0046
1573.00,0.0043
1572.00,0.0041
1571.00,0.0039
1570.00,0.0037
1569.00,0.0035
1568.00,0.0033
1567.00,0.0032
1566.00,0.0032
1565.00,0.0031
1564.00,0.0031
1563.00,0.0031
1562.00,0.0031
1561.00,0.0031
1560.00,0.0032
1559.00,0.0032
1558.00,0.0032
1557.00,0.0032
1556.00,0.0033
1555.00,0.0034
1554.00,0.0035
1553.00,0.0036
1552.00,0.0038
1551.00,0.0040
1550.00,0.0041
1549.00,0.0042
1548.00,0.0043
1547.00,0.0044
1546.00,0.0046
1545.00,0.0047
1544.00,0.0048
1543.00,0.0048
1542.00,0.0048
1541.00,0.0047
1540.00,0.0045
1539.00,0.0044
1538.00,0.0043
1537.00,0.0042
1536.00,0.0041
1535.00,0.0040
1534.00,0.0038
1533.00,0.0036
1532.00,0.0035
1531.00,0.0034
1530.00,0.0033
1529.00,0.0032
1528.00,0.0031
1527.00,0.0031
1526.00,0.0030
1525.00,0.0030
1524.00,0.0030
1523.00,0.0030
1522.00,0.0030
1521.00,0.0030
1520.00,0.0030
1519.00,0.0031
1518.00,0.0031
1517.00,0.0032
1516.00,0.0032
1515.00,0.0033
1514.00,0.0034
1513.00,0.0035
1512.00,0.0036
1511.00,0.0038
1510.00,0.0040
1509.00,0.0042
1508.00,0.0044
1507.00,0.0047
1506.00,0.0052
1505.00,0.0058
1504.00,0.0065
1503.00,0.0074
1502.00,0.0086
1501.00,0.0104
1500.00,0.0131
1499.00,0.0173
1498.00,0.0239
1497.00,0.0339
1496.00,0.0466
1495.00,0.0593
1494.00,0.0690
1493.00,0.0738
1492.00,0.0725
1491.00,0.0654
1490.00,0.0544
1489.00,0.0431
1488.00,0.0340
1487.00,0.0274
1486.00,0.0225
1485.00,0.0189
1484.00,0.0160
1483.00,0.0137
1482.00,0.0119
1481.00,0.0106
1480.00,0.0096
1479.00,0.0089
1478.00,0.0084
1477.00,0.0081
1476.00,0.0079
1475.00,0.0077
1474.00,0.0076
1473.00,0.0075
1472.00,0.0075
1471.00,0.0076
1470.00,0.0077
1469.00,0.0079
1468.00,0.0082
1467.00,0.0085
1466.00,0.0088
1465.00,0.0093
1464.00,0.0098
1463.00,0.0105
1462.00,0.0114
1461.00,0.0126
1460.00,0.0143
1459.00,0.0173
1458.00,0.0230
1457.00,0.0329
1456.00,0.0453
1455.00,0.0568
1454.00,0.0661
1453.00,0.0727
1452.00,0.0757
1451.00,0.0744
1450.00,0.0700
1449.00,0.0643
1448.00,0.0585
1447.00,0.0534
1446.00,0.0491
1445.00,0.0453
1444.00,0.0417
1443.00,0.0382
1442.00,0.0351
1441.00,0.0323
1440.00,0.0298
1439.00,0.0276
1438.00,0.0254
1437.00,0.0230
1436.00,0.0206
1435.00,0.0185
1434.00,0.0168
1433.00,0.0153
1432.00,0.0140
1431.00,0.0128
1430.00,0.0117
1429.00,0.0108
1428.00,0.0101
1427.00,0.0096
1426.00,0.0092
1425.00,0.0088
1424.00,0.0084
1423.00,0.0081
1422.00,0.0079
1421.00,0.0078
1420.00,0.0076
1419.00,0.0074
1418.00,0.0073
1417.00,0.0070
1416.00,0.0068
1415.00,0.0067
1414.00,0.0066
1413.00,0.0065
1412.00,0.0064
1411.00,0.0064
1410.00,0.0064
1409.00,0.0063
1408.00,0.0063
1407.00,0.0063
1406.00,0.0063
1405.00,0.0063
1404.00,0.0063
1403.00,0.0062
1402.00,0.0062
1401.00,0.0062
1400.00,0.0062
1399.00,0.0063
1398.00,0.0064
1397.00,0.0064
1396.00,0.0065
1395.00,0.0066
1394.00,0.0069
1393.00,0.0071
1392.00,0.0074
1391.00,0.0078
1390.00,0.0083
1389.00,0.0088
1388.00,0.0093
1387.00,0.0099
1386.00,0.0105
1385.00,0.0110
1384.00,0.0114
1383.00,0.0119
1382.00,0.0124
1381.00,0.0129
1380.00,0.0134
1379.00,0.0139
1378.00,0.0143
1377.00,0.0147
1376.00,0.0151
1375.00,0.0155
1374.00,0.0158
1373.00,0.0159
1372.00,0.0159
1371.00,0.0159
1370.00,0.0158
1369.00,0.0157
1368.00,0.0157
1367.00,0.0156
1366.00,0.0155
1365.00,0.0155
1364.00,0.0154
1363.00,0.0153
1362.00,0.0151
1361.00,0.0149
1360.00,0.0146
1359.00,0.0143
1358.00,0.0140
1357.00,0.0138
1356.00,0.0136
1355.00,0.0135
1354.00,0.0134
1353.00,0.0133
1352.00,0.0133
1351.00,0.0132
1350.00,0.0132
1349.00,0.0132
1348.00,0.0131
1347.00,0.0130
1346.00,0.0128
1345.00,0.0126
1344.00,0.0124
1343.00,0.0122
1342.00,0.0121
1341.00,0.0119
1340.00,0.0117
1339.00,0.0116
1338.00,0.0116
1337.00,0.0116
1336.00,0.0118
1335.00,0.0120
1334.00,0.0123
1333.00,0.0126
1332.00,0.0129
1331.00,0.0132
1330.00,0.0135
1329.00,0.0136
1328.00,0.0137
1327.00,0.0136
1326.00,0.0134
1325.00,0.0132
1324.00,0.0130
1323.00,0.0128
1322.00,0.0127
1321.00,0.0126
1320.00,0.0126
1319.00,0.0126
1318.00,0.0127
1317.00,0.0128
1316.00,0.0129
1315.00,0.0131
1314.00,0.0132
1313.00,0.0133
1312.00,0.0133
1311.00,0.0132
1310.00,0.0131
1309.00,0.0129
1308.00,0.0127
1307.00,0.0125
1306.00,0.0124
1305.00,0.0122
1304.00,0.0120
1303.00,0.0118
1302.00,0.0116
1301.00,0.0114
1300.00,0.0112
1299.00,0.0111
1298.00,0.0110
1297.00,0.0110
1296.00,0.0109
1295.00,0.0109
1294.00,0.0109
1293.00,0.0109
1292.00,0.0109
1291.00,0.0108
1290.00,0.0107
1289.00,0.0106
1288.00,0.0105
1287.00,0.0104
1286.00,0.0103
1285.00,0.0102
1284.00,0.0102
1283.00,0.0101
1282.00,0.0100
1281.00,0.0099
1280.00,0.0097
1279.00,0.0096
1278.00,0.0094
1277.00,0.0092
1276.00,0.0090
1275.00,0.0088
1274.00,0.0086
1273.00,0.0084
1272.00,0.0082
1271.00,0.0081
1270.00,0.0079
1269.00,0.0078
1268.00,0.0077
1267.00,0.0076
1266.00,0.0076
1265.00,0.0075
1264.00,0.0074
1263.00,0.0073
1262.00,0.0072
1261.00,0.0072
1260.00,0.0071
1259.00,0.0070
1258.00,0.0070
1257.00,0.0069
1256.00,0.0069
1255.00,0.0069
1254.00,0.0069
1253.00,0.0069
1252.00,0.0069
1251.00,0.0070
1250.00,0.0070
1249.00,0.0071
1248.00,0.0071
1247.00,0.0072
1246.00,0.0072
1245.00,0.0073
1244.00,0.0072
1243.00,0.0072
1242.00,0.0072
1241.00,0.0072
1240.00,0.0072
1239.00,0.0072
1238.00,0.0072
1237.00,0.0072
1236.00,0.0071
1235.00,0.0071
1234.00,0.0071
1233.00,0.0071
1232.00,0.0071
1231.00,0.0071
1230.00,0.0072
1229.00,0.0072
1228.00,0.0072
1227.00,0.0072
1226.00,0.0072
1225.00,0.0073
1224.00,0.0073
1223.00,0.0073
1222.00,0.0073
1221.00,0.0073
1220.00,0.0073
1219.00,0.0073
1218.00,0.0073
1217.00,0.0073
1216.00,0.0074
1215.00,0.0074
1214.00,0.0075
1213.00,0.0076
1212.00,0.0076
1211.00,0.0078
1210.00,0.0080
1209.00,0.0081
1208.00,0.0083
1207.00,0.0085
1206.00,0.0088
1205.00,0.0091
1204.00,0.0093
1203.00,0.0096
1202.00,0.0099
1201.00,0.0102
1200.00,0.0105
1199.00,0.0107
1198.00,0.0109
1197.00,0.0110
1196.00,0.0111
1195.00,0.0112
1194.00,0.0113
1193.00,0.0113
1192.00,0.0113
1191.00,0.0114
1190.00,0.0114
1189.00,0.0116
1188.00,0.0118
1187.00,0.0123
1186.00,0.0129
1185.00,0.0135
1184.00,0.0142
1183.00,0.0149
1182.00,0.0153
1181.00,0.0153
1180.00,0.0149
1179.00,0.0142
1178.00,0.0132
1177.00,0.0121
1176.00,0.0111
1175.00,0.0104
1174.00,0.0098
1173.00,0.0094
1172.00,0.0091
1171.00,0.0088
1170.00,0.0087
1169.00,0.0086
1168.00,0.0086
1167.00,0.0086
1166.00,0.0086
1165.00,0.0087
1164.00,0.0088
1163.00,0.0091
1162.00,0.0095
1161.00,0.0102
1160.00,0.0109
1159.00,0.0119
1158.00,0.0130
1157.00,0.0141
1156.00,0.0148
1155.00,0.0152
1154.00,0.0151
1153.00,0.0145
1152.00,0.0135
1151.00,0.0123
1150.00,0.0110
1149.00,0.0099
1148.00,0.0090
1147.00,0.0083
1146.00,0.0078
1145.00,0.0074
1144.00,0.0070
1143.00,0.0067
1142.00,0.0065
1141.00,0.0063
1140.00,0.0061
1139.00,0.0060
1138.00,0.0059
1137.00,0.0058
1136.00,0.0058
1135.00,0.0058
1134.00,0.0058
1133.00,0.0058
1132.00,0.0058
1131.00,0.0058
1130.00,0.0059
1129.00,0.0059
1128.00,0.0060
1127.00,0.0060
1126.00,0.0060
1125.00,0.0061
1124.00,0.0061
1123.00,0.0063
1122.00,0.0064
1121.00,0.0066
1120.00,0.0067
1119.00,0.0070
1118.00,0.0073
1117.00,0.0076
1116.00,0.0079
1115.00,0.0081
1114.00,0.0083
1113.00,0.0084
1112.00,0.0085
1111.00,0.0085
1110.00,0.0085
1109.00,0.0085
1108.00,0.0084
1107.00,0.0083
1106.00,0.0083
1105.00,0.0083
1104.00,0.0083
1103.00,0.0084
1102.00,0.0085
1101.00,0.0086
1100.00,0.0087
1099.00,0.0088
1098.00,0.0089
1097.00,0.0091
1096.00,0.0091
1095.00,0.0092
1094.00,0.0094
1093.00,0.0095
1092.00,0.0096
1091.00,0.0097
1090.00,0.0099
1089.00,0.0101
1088.00,0.0103
1087.00,0.0106
1086.00,0.0110
1085.00,0.0114
1084.00,0.0117
1083.00,0.0122
1082.00,0.0127
1081.00,0.0131
1080.00,0.0136
1079.00,0.0141
1078.00,0.0147
1077.00,0.0153
1076.00,0.0160
1075.00,0.0167
1074.00,0.0176
1073.00,0.0185
1072.00,0.0193
1071.00,0.0199
1070.00,0.0204
1069.00,0.0206
1068.00,0.0206
1067.00,0.0202
1066.00,0.0197
1065.00,0.0191
1064.00,0.0183
1063.00,0.0176
1062.00,0.0169
1061.00,0.0162
1060.00,0.0155
1059.00,0.0149
1058.00,0.0144
1057.00,0.0139
1056.00,0.0135
1055.00,0.0130
1054.00,0.0127
1053.00,0.0124
1052.00,0.0120
1051.00,0.0117
1050.00,0.0114
1049.00,0.0111
1048.00,0.0108
1047.00,0.0106
1046.00,0.0105
1045.00,0.0104
1044.00,0.0103
1043.00,0.0103
1042.00,0.0105
1041.00,0.0107
1040.00,0.0110
1039.00,0.0116
1038.00,0.0125
1037.00,0.0139
1036.00,0.0159
1035.00,0.0184
1034.00,0.0215
1033.00,0.0250
1032.00,0.0284
1031.00,0.0316
1030.00,0.0341
1029.00,0.0357
1028.00,0.0361
1027.00,0.0353
1026.00,0.0335
1025.00,0.0311
1024.00,0.0284
1023.00,0.0260
1022.00,0.0240
1021.00,0.0223
1020.00,0.0208
1019.00,0.0196
1018.00,0.0186
1017.00,0.0177
1016.00,0.0169
1015.00,0.0162
1014.00,0.0156
1013.00,0.0151
1012.00,0.0146
1011.00,0.0142
1010.00,0.0140
1009.00,0.0138
1008.00,0.0138
1007.00,0.0140
1006.00,0.0144
1005.00,0.0148
1004.00,0.0150
1003.00,0.0150
1002.00,0.0146
1001.00,0.0139
1000.00,0.0129
999.00,0.0120
998.00,0.0114
997.00,0.0109
996.00,0.0106
995.00,0.0105
994.00,0.0104
993.00,0.0104
992.00,0.0104
991.00,0.0105
990.00,0.0107
989.00,0.0109
988.00,0.0111
987.00,0.0113
986.00,0.0117
985.00,0.0121
984.00,0.0124
983.00,0.0128
982.00,0.0131
981.00,0.0133
980.00,0.0133
979.00,0.0133
978.00,0.0131
977.00,0.0129
976.00,0.0125
975.00,0.0122
974.00,0.0120
973.00,0.0119
972.00,0.0119
971.00,0.0120
970.00,0.0124
969.00,0.0129
968.00,0.0133
967.00,0.0138
966.00,0.0142
965.00,0.0144
964.00,0.0144
963.00,0.0142
962.00,0.0139
961.00,0.0133
960.00,0.0127
959.00,0.0119
958.00,0.0113
957.00,0.0108
956.00,0.0104
955.00,0.0101
954.00,0.0100
953.00,0.0099
952.00,0.0099
951.00,0.0099
950.00,0.0100
949.00,0.0101
948.00,0.0102
947.00,0.0104
946.00,0.0106
945.00,0.0108
944.00,0.0108
943.00,0.0109
942.00,0.0108
941.00,0.0107
940.00,0.0105
939.00,0.0102
938.00,0.0099
937.00,0.0096
936.00,0.0092
935.00,0.0088
934.00,0.0085
933.00,0.0083
932.00,0.0080
931.00,0.0079
930.00,0.0078
929.00,0.0077
928.00,0.0077
927.00,0.0077
926.00,0.0078
925.00,0.0080
924.00,0.0081
923.00,0.0083
922.00,0.0086
921.00,0.0089
920.00,0.0093
919.00,0.0097
918.00,0.0103
917.00,0.0111
916.00,0.0120
915.00,0.0131
914.00,0.0145
913.00,0.0159
912.00,0.0175
911.00,0.0191
910.00,0.0207
909.00,0.0221
908.00,0.0232
907.00,0.0238
906.00,0.0239
905.00,0.0235
904.00,0.0225
903.00,0.0211
902.00,0.0195
901.00,0.0177
900.00,0.0159
899.00,0.0141
898.00,0.0127
897.00,0.0114
896.00,0.0104
895.00,0.0096
894.00,0.0090
893.00,0.0085
892.00,0.0081
891.00,0.0078
890.00,0.0076
889.00,0.0074
888.00,0.0072
887.00,0.0071
886.00,0.0069
885.00,0.0068
884.00,0.0066
883.00,0.0064
882.00,0.0063
881.00,0.0063
880.00,0.0061
879.00,0.0060
878.00,0.0060
877.00,0.0060
876.00,0.0059
875.00,0.0058
874.00,0.0058
873.00,0.0058
872.00,0.0058
871.00,0.0057
870.00,0.0057
869.00,0.0057
868.00,0.0056
867.00,0.0055
866.00,0.0055
865.00,0.0055
864.00,0.0054
863.00,0.0054
862.00,0.0054
861.00,0.0054
860.00,0.0054
859.00,0.0054
858.00,0.0055
857.00,0.0056
856.00,0.0057
855.00,0.0058
854.00,0.0061
853.00,0.0064
852.00,0.0068
851.00,0.0072
850.00,0.0078
849.00,0.0084
848.00,0.0091
847.00,0.0097
846.00,0.0104
845.00,0.0111
844.00,0.0116
843.00,0.0120
842.00,0.0122
841.00,0.0122
840.00,0.0120
839.00,0.0115
838.00,0.0110
837.00,0.0103
836.00,0.0095
835.00,0.0086
834.00,0.0078
833.00,0.0071
832.00,0.0065
831.00,0.0061
830.00,0.0059
829.00,0.0057
828.00,0.0056
827.00,0.0055
826.00,0.0055
825.00,0.0054
824.00,0.0054
823.00,0.0053
822.00,0.0053
821.00,0.0053
820.00,0.0053
819.00,0.0052
818.00,0.0053
817.00,0.0054
816.00,0.0054
815.00,0.0055
814.00,0.0056
813.00,0.0057
812.00,0.0057
811.00,0.0057
810.00,0.0057
809.00,0.0058
808.00,0.0058
807.00,0.0058
806.00,0.0058
805.00,0.0059
804.00,0.0059
803.00,0.0060
802.00,0.0061
801.00,0.0062
800.00,0.0063
799.00,0.0066
798.00,0.0069
797.00,0.0073
796.00,0.0076
795.00,0.0080
794.00,0.0086
793.00,0.0091
792.00,0.0097
791.00,0.0102
790.00,0.0109
789.00,0.0117
788.00,0.0124
787.00,0.0132
786.00,0.0141
785.00,0.0151
784.00,0.0161
783.00,0.0171
782.00,0.0183
781.00,0.0197
780.00,0.0213
779.00,0.0231
778.00,0.0251
777.00,0.0275
776.00,0.0300
775.00,0.0329
774.00,0.0360
773.00,0.0394
772.00,0.0431
771.00,0.0470
770.00,0.0510
769.00,0.0552
768.00,0.0592
767.00,0.0633
766.00,0.0673
765.00,0.0714
764.00,0.0754
763.00,0.0795
762.00,0.0838
761.00,0.0881
760.00,0.0923
759.00,0.0961
758.00,0.0996
757.00,0.1023
756.00,0.1042
755.00,0.1051
754.00,0.1054
753.00,0.1052
752.00,0.1047
751.00,0.1042
750.00,0.1038
749.00,0.1033
748.00,0.1023
747.00,0.1005
746.00,0.0976
745.00,0.0932
744.00,0.0874
743.00,0.0807
742.00,0.0738
741.00,0.0670
740.00,0.0605
739.00,0.0546
738.00,0.0492
737.00,0.0441
736.00,0.0392
735.00,0.0345
734.00,0.0301
733.00,0.0262
732.00,0.0226
731.00,0.0197
730.00,0.0174
729.00,0.0157
728.00,0.0143
727.00,0.0133
726.00,0.0126
725.00,0.0121
724.00,0.0118
723.00,0.0115
722.00,0.0114
721.00,0.0113
720.00,0.0114
719.00,0.0116
718.00,0.0121
717.00,0.0128
716.00,0.0137
715.00,0.0150
714.00,0.0168
713.00,0.0193
712.00,0.0227
711.00,0.0274
710.00,0.0338
709.00,0.0419
708.00,0.0520
707.00,0.0642
706.00,0.0785
705.00,0.0949
704.00,0.1130
703.00,0.1328
702.00,0.1542
701.00,0.1769
700.00,0.2004
699.00,0.2246
698.00,0.2490
697.00,0.2717
696.00,0.2894
695.00,0.2979
694.00,0.2938
693.00,0.2762
692.00,0.2481
691.00,0.2158
690.00,0.1845
689.00,0.1573
688.00,0.1348
687.00,0.1170
686.00,0.1032
685.00,0.0922
684.00,0.0831
683.00,0.0757
682.00,0.0696
681.00,0.0645
680.00,0.0599
679.00,0.0561
678.00,0.0530
677.00,0.0503
676.00,0.0479
675.00,0.0458
674.00,0.0441
673.00,0.0425
672.00,0.0410
671.00,0.0397
670.00,0.0386
669.00,0.0372
668.00,0.0355
667.00,0.0340
666.00,0.0328
665.00,0.0316
664.00,0.0303
663.00,0.0289
662.00,0.0277
661.00,0.0266
660.00,0.0254
659.00,0.0243
658.00,0.0233
657.00,0.0224
656.00,0.0214
655.00,0.0206
654.00,0.0199
653.00,0.0192
652.00,0.0184
651.00,0.0178
650.00,0.0174
649.00,0.0170
648.00,0.0165
647.00,0.0160
646.00,0.0157
645.00,0.0154
644.00,0.0151
643.00,0.0150
642.00,0.0149
641.00,0.0149
640.00,0.0148
639.00,0.0149
638.00,0.0152
637.00,0.0157
636.00,0.0160
635.00,0.0164
634.00,0.0169
633.00,0.0173
632.00,0.0177
631.00,0.0180
630.00,0.0185
629.00,0.0188
628.00,0.0190
627.00,0.0192
626.00,0.0195
625.00,0.0197
624.00,0.0199
623.00,0.0202
622.00,0.0207
621.00,0.0211
620.00,0.0209
619.00,0.0205
618.00,0.0199
617.00,0.0193
616.00,0.0186
615.00,0.0181
614.00,0.0177
613.00,0.0174
612.00,0.0169
611.00,0.0166
610.00,0.0165
609.00,0.0164
608.00,0.0162
607.00,0.0160
606.00,0.0160
605.00,0.0161
604.00,0.0160
603.00,0.0160
602.00,0.0162
601.00,0.0164
600.00,0.0166
599.00,0.0169
598.00,0.0172
597.00,0.0175
596.00,0.0176
595.00,0.0178
594.00,0.0181
593.00,0.0184
592.00,0.0186
591.00,0.0189
590.00,0.0192
589.00,0.0195
588.00,0.0196
587.00,0.0198
586.00,0.0203
585.00,0.0209
584.00,0.0214
583.00,0.0220
582.00,0.0228
581.00,0.0235
580.00,0.0242
579.00,0.0251
578.00,0.0262
577.00,0.0275
576.00,0.0287
575.00,0.0300
574.00,0.0314
573.00,0.0327
572.00,0.0340
571.00,0.0352
570.00,0.0366
569.00,0.0380
568.00,0.0392
567.00,0.0405
566.00,0.0419
565.00,0.0432
564.00,0.0444
563.00,0.0457
562.00,0.0471
561.00,0.0484
560.00,0.0495
559.00,0.0507
558.00,0.0522
557.00,0.0536
556.00,0.0549
555.00,0.0564
554.00,0.0580
553.00,0.0598
552.00,0.0614
551.00,0.0633
550.00,0.0654
549.00,0.0677
548.00,0.0701
547.00,0.0728
546.00,0.0759
545.00,0.0792
544.00,0.0824
543.00,0.0856
542.00,0.0888
541.00,0.0917
540.00,0.0939
539.00,0.0953
538.00,0.0958
537.00,0.0952
536.00,0.0933
535.00,0.0903
534.00,0.0866
533.00,0.0822
532.00,0.0773
531.00,0.0722
530.00,0.0674
529.00,0.0629
528.00,0.0584
527.00,0.0541
526.00,0.0503
525.00,0.0467
524.00,0.0434
523.00,0.0406
522.00,0.0386
521.00,0.0369
520.00,0.0353
519.00,0.0338
518.00,0.0326
517.00,0.0314
516.00,0.0301
515.00,0.0290
514.00,0.0282
513.00,0.0274
512.00,0.0264
511.00,0.0254
510.00,0.0247
509.00,0.0239
508.00,0.0228
507.00,0.0219
506.00,0.0215
505.00,0.0210
504.00,0.0202
503.00,0.0194
502.00,0.0189
501.00,0.0184
500.00,0.0178
499.00,0.0172
498.00,0.0172
497.00,0.0171
496.00,0.0168
495.00,0.0165
494.00,0.0164
493.00,0.0162
492.00,0.0157
491.00,0.0152
490.00,0.0150
489.00,0.0148
488.00,0.0144
487.00,0.0141
486.00,0.0141
485.00,0.0141
484.00,0.0139
483.00,0.0137
482.00,0.0137
481.00,0.0135
480.00,0.0129
479.00,0.0124
478.00,0.0126
477.00,0.0129
476.00,0.0128
475.00,0.0126
474.00,0.0126
473.00,0.0124
472.00,0.0118
471.00,0.0117
470.00,0.0122
469.00,0.0127
468.00,0.0126
467.00,0.0123
466.00,0.0125
465.00,0.0126
464.00,0.0124
463.00,0.0122
462.00,0.0124
461.00,0.0125
460.00,0.0120
459.00,0.0117
458.00,0.0119
457.00,0.0120
456.00,0.0114
455.00,0.0109
454.00,0.0111
453.00,0.0114
452.00,0.0113
451.00,0.0112
450.00,0.0114
449.00,0.0115
448.00,0.0110
447.00,0.0107
446.00,0.0109
445.00,0.0109
444.00,0.0104
443.00,0.0100
442.00,0.0104
441.00,0.0107
440.00,0.0106
439.00,0.0105
438.00,0.0110
437.00,0.0112
436.00,0.0105
435.00,0.0098
434.00,0.0098
433.00,0.0100
432.00,0.0096
431.00,0.0093
430.00,0.0096
429.00,0.0097
428.00,0.0093
427.00,0.0089
426.00,0.0092
425.00,0.0096
424.00,0.0093
423.00,0.0092
422.00,0.0098
421.00,0.0100
420.00,0.0091
419.00,0.0083
418.00,0.0090
417.00,0.0098
416.00,0.0096
415.00,0.0096
414.00,0.0104
413.00,0.0105
412.00,0.0092
411.00,0.0081
410.00,0.0086
409.00,0.0096
408.00,0.0096
407.00,0.0098
406.00,0.0111
405.00,0.0119
404.00,0.0106
403.00,0.0088
402.00,0.0084
401.00,0.0082
400.00,0.0066
