Created as New Dataset,Sample 878 By YargerLab Date Monday, July 21 2025
cm-1,A
4000.00,0.0010
3999.00,0.0010
3998.00,0.0009
3997.00,0.0009
3996.00,0.0009
3995.00,0.0008
3994.00,0.0008
3993.00,0.0008
3992.00,0.0008
3991.00,0.0008
3990.00,0.0009
3989.00,0.0009
3988.00,0.0009
3987.00,0.0009
3986.00,0.0009
3985.00,0.0009
3984.00,0.0009
3983.00,0.0009
3982.00,0.0009
3981.00,0.0008
3980.00,0.0008
3979.00,0.0008
3978.00,0.0008
3977.00,0.0008
3976.00,0.0008
3975.00,0.0008
3974.00,0.0008
3973.00,0.0008
3972.00,0.0009
3971.00,0.0008
3970.00,0.0008
3969.00,0.0008
3968.00,0.0008
3967.00,0.0008
3966.00,0.0008
3965.00,0.0008
3964.00,0.0008
3963.00,0.0008
3962.00,0.0008
3961.00,0.0008
3960.00,0.0008
3959.00,0.0008
3958.00,0.0008
3957.00,0.0008
3956.00,0.0008
3955.00,0.0008
3954.00,0.0008
3953.00,0.0008
3952.00,0.0008
3951.00,0.0008
3950.00,0.0008
3949.00,0.0008
3948.00,0.0008
3947.00,0.0008
3946.00,0.0008
3945.00,0.0008
3944.00,0.0008
3943.00,0.0008
3942.00,0.0008
3941.00,0.0008
3940.00,0.0008
3939.00,0.0008
3938.00,0.0008
3937.00,0.0008
3936.00,0.0008
3935.00,0.0008
3934.00,0.0008
3933.00,0.0008
3932.00,0.0008
3931.00,0.0008
3930.00,0.0008
3929.00,0.0008
3928.00,0.0008
3927.00,0.0008
3926.00,0.0009
3925.00,0.0009
3924.00,0.0009
3923.00,0.0009
3922.00,0.0009
3921.00,0.0008
3920.00,0.0008
3919.00,0.0008
3918.00,0.0008
3917.00,0.0008
3916.00,0.0008
3915.00,0.0008
3914.00,0.0008
3913.00,0.0008
3912.00,0.0008
3911.00,0.0008
3910.00,0.0008
3909.00,0.0009
3908.00,0.0009
3907.00,0.0009
3906.00,0.0009
3905.00,0.0009
3904.00,0.0009
3903.00,0.0009
3902.00,0.0009
3901.00,0.0009
3900.00,0.0008
3899.00,0.0008
3898.00,0.0008
3897.00,0.0008
3896.00,0.0008
3895.00,0.0008
3894.00,0.0008
3893.00,0.0008
3892.00,0.0008
3891.00,0.0008
3890.00,0.0008
3889.00,0.0009
3888.00,0.0008
3887.00,0.0008
3886.00,0.0007
3885.00,0.0007
3884.00,0.0008
3883.00,0.0008
3882.00,0.0007
3881.00,0.0007
3880.00,0.0007
3879.00,0.0007
3878.00,0.0008
3877.00,0.0008
3876.00,0.0008
3875.00,0.0008
3874.00,0.0009
3873.00,0.0009
3872.00,0.0009
3871.00,0.0009
3870.00,0.0008
3869.00,0.0008
3868.00,0.0009
3867.00,0.0009
3866.00,0.0009
3865.00,0.0009
3864.00,0.0010
3863.00,0.0009
3862.00,0.0009
3861.00,0.0009
3860.00,0.0009
3859.00,0.0009
3858.00,0.0009
3857.00,0.0009
3856.00,0.0009
3855.00,0.0009
3854.00,0.0009
3853.00,0.0008
3852.00,0.0009
3851.00,0.0009
3850.00,0.0008
3849.00,0.0008
3848.00,0.0008
3847.00,0.0008
3846.00,0.0008
3845.00,0.0008
3844.00,0.0009
3843.00,0.0009
3842.00,0.0009
3841.00,0.0009
3840.00,0.0009
3839.00,0.0009
3838.00,0.0009
3837.00,0.0009
3836.00,0.0009
3835.00,0.0009
3834.00,0.0009
3833.00,0.0008
3832.00,0.0008
3831.00,0.0009
3830.00,0.0009
3829.00,0.0009
3828.00,0.0008
3827.00,0.0009
3826.00,0.0009
3825.00,0.0009
3824.00,0.0009
3823.00,0.0009
3822.00,0.0009
3821.00,0.0008
3820.00,0.0009
3819.00,0.0009
3818.00,0.0009
3817.00,0.0008
3816.00,0.0008
3815.00,0.0009
3814.00,0.0009
3813.00,0.0010
3812.00,0.0010
3811.00,0.0010
3810.00,0.0010
3809.00,0.0010
3808.00,0.0010
3807.00,0.0010
3806.00,0.0010
3805.00,0.0010
3804.00,0.0010
3803.00,0.0009
3802.00,0.0009
3801.00,0.0009
3800.00,0.0009
3799.00,0.0009
3798.00,0.0009
3797.00,0.0008
3796.00,0.0008
3795.00,0.0008
3794.00,0.0008
3793.00,0.0008
3792.00,0.0008
3791.00,0.0009
3790.00,0.0009
3789.00,0.0009
3788.00,0.0009
3787.00,0.0009
3786.00,0.0009
3785.00,0.0009
3784.00,0.0009
3783.00,0.0009
3782.00,0.0010
3781.00,0.0009
3780.00,0.0009
3779.00,0.0009
3778.00,0.0009
3777.00,0.0009
3776.00,0.0009
3775.00,0.0009
3774.00,0.0009
3773.00,0.0009
3772.00,0.0009
3771.00,0.0009
3770.00,0.0009
3769.00,0.0009
3768.00,0.0009
3767.00,0.0009
3766.00,0.0009
3765.00,0.0009
3764.00,0.0009
3763.00,0.0009
3762.00,0.0009
3761.00,0.0009
3760.00,0.0009
3759.00,0.0009
3758.00,0.0009
3757.00,0.0009
3756.00,0.0009
3755.00,0.0009
3754.00,0.0010
3753.00,0.0010
3752.00,0.0010
3751.00,0.0009
3750.00,0.0009
3749.00,0.0009
3748.00,0.0009
3747.00,0.0009
3746.00,0.0008
3745.00,0.0008
3744.00,0.0008
3743.00,0.0008
3742.00,0.0009
3741.00,0.0008
3740.00,0.0008
3739.00,0.0008
3738.00,0.0009
3737.00,0.0009
3736.00,0.0009
3735.00,0.0009
3734.00,0.0009
3733.00,0.0009
3732.00,0.0008
3731.00,0.0008
3730.00,0.0008
3729.00,0.0008
3728.00,0.0008
3727.00,0.0008
3726.00,0.0008
3725.00,0.0008
3724.00,0.0008
3723.00,0.0008
3722.00,0.0008
3721.00,0.0008
3720.00,0.0008
3719.00,0.0008
3718.00,0.0008
3717.00,0.0008
3716.00,0.0009
3715.00,0.0009
3714.00,0.0009
3713.00,0.0009
3712.00,0.0009
3711.00,0.0009
3710.00,0.0009
3709.00,0.0009
3708.00,0.0009
3707.00,0.0009
3706.00,0.0009
3705.00,0.0009
3704.00,0.0009
3703.00,0.0008
3702.00,0.0008
3701.00,0.0008
3700.00,0.0008
3699.00,0.0008
3698.00,0.0007
3697.00,0.0007
3696.00,0.0007
3695.00,0.0007
3694.00,0.0007
3693.00,0.0007
3692.00,0.0007
3691.00,0.0008
3690.00,0.0008
3689.00,0.0008
3688.00,0.0008
3687.00,0.0008
3686.00,0.0008
3685.00,0.0008
3684.00,0.0008
3683.00,0.0008
3682.00,0.0008
3681.00,0.0008
3680.00,0.0009
3679.00,0.0009
3678.00,0.0009
3677.00,0.0009
3676.00,0.0009
3675.00,0.0009
3674.00,0.0009
3673.00,0.0010
3672.00,0.0009
3671.00,0.0009
3670.00,0.0009
3669.00,0.0009
3668.00,0.0009
3667.00,0.0009
3666.00,0.0009
3665.00,0.0009
3664.00,0.0009
3663.00,0.0009
3662.00,0.0009
3661.00,0.0010
3660.00,0.0010
3659.00,0.0010
3658.00,0.0010
3657.00,0.0010
3656.00,0.0010
3655.00,0.0010
3654.00,0.0011
3653.00,0.0011
3652.00,0.0011
3651.00,0.0011
3650.00,0.0011
3649.00,0.0011
3648.00,0.0011
3647.00,0.0011
3646.00,0.0010
3645.00,0.0010
3644.00,0.0009
3643.00,0.0009
3642.00,0.0009
3641.00,0.0009
3640.00,0.0009
3639.00,0.0009
3638.00,0.0009
3637.00,0.0009
3636.00,0.0009
3635.00,0.0009
3634.00,0.0009
3633.00,0.0009
3632.00,0.0009
3631.00,0.0009
3630.00,0.0008
3629.00,0.0008
3628.00,0.0008
3627.00,0.0009
3626.00,0.0009
3625.00,0.0009
3624.00,0.0009
3623.00,0.0009
3622.00,0.0009
3621.00,0.0009
3620.00,0.0009
3619.00,0.0009
3618.00,0.0009
3617.00,0.0009
3616.00,0.0009
3615.00,0.0009
3614.00,0.0009
3613.00,0.0009
3612.00,0.0009
3611.00,0.0009
3610.00,0.0009
3609.00,0.0008
3608.00,0.0008
3607.00,0.0008
3606.00,0.0009
3605.00,0.0009
3604.00,0.0009
3603.00,0.0009
3602.00,0.0009
3601.00,0.0009
3600.00,0.0009
3599.00,0.0010
3598.00,0.0010
3597.00,0.0010
3596.00,0.0011
3595.00,0.0011
3594.00,0.0011
3593.00,0.0011
3592.00,0.0010
3591.00,0.0010
3590.00,0.0010
3589.00,0.0010
3588.00,0.0010
3587.00,0.0010
3586.00,0.0010
3585.00,0.0010
3584.00,0.0010
3583.00,0.0010
3582.00,0.0010
3581.00,0.0011
3580.00,0.0011
3579.00,0.0011
3578.00,0.0011
3577.00,0.0010
3576.00,0.0010
3575.00,0.0010
3574.00,0.0010
3573.00,0.0010
3572.00,0.0011
3571.00,0.0011
3570.00,0.0011
3569.00,0.0011
3568.00,0.0011
3567.00,0.0011
3566.00,0.0011
3565.00,0.0011
3564.00,0.0011
3563.00,0.0011
3562.00,0.0011
3561.00,0.0011
3560.00,0.0012
3559.00,0.0012
3558.00,0.0012
3557.00,0.0012
3556.00,0.0013
3555.00,0.0013
3554.00,0.0013
3553.00,0.0013
3552.00,0.0013
3551.00,0.0013
3550.00,0.0013
3549.00,0.0013
3548.00,0.0013
3547.00,0.0013
3546.00,0.0013
3545.00,0.0013
3544.00,0.0013
3543.00,0.0013
3542.00,0.0013
3541.00,0.0013
3540.00,0.0014
3539.00,0.0014
3538.00,0.0014
3537.00,0.0014
3536.00,0.0014
3535.00,0.0014
3534.00,0.0014
3533.00,0.0014
3532.00,0.0014
3531.00,0.0014
3530.00,0.0015
3529.00,0.0014
3528.00,0.0014
3527.00,0.0014
3526.00,0.0015
3525.00,0.0015
3524.00,0.0015
3523.00,0.0015
3522.00,0.0015
3521.00,0.0015
3520.00,0.0015
3519.00,0.0015
3518.00,0.0014
3517.00,0.0014
3516.00,0.0015
3515.00,0.0015
3514.00,0.0015
3513.00,0.0015
3512.00,0.0015
3511.00,0.0015
3510.00,0.0015
3509.00,0.0015
3508.00,0.0015
3507.00,0.0015
3506.00,0.0015
3505.00,0.0015
3504.00,0.0015
3503.00,0.0015
3502.00,0.0016
3501.00,0.0016
3500.00,0.0016
3499.00,0.0016
3498.00,0.0016
3497.00,0.0016
3496.00,0.0016
3495.00,0.0016
3494.00,0.0016
3493.00,0.0016
3492.00,0.0017
3491.00,0.0017
3490.00,0.0017
3489.00,0.0017
3488.00,0.0017
3487.00,0.0017
3486.00,0.0016
3485.00,0.0016
3484.00,0.0016
3483.00,0.0016
3482.00,0.0016
3481.00,0.0016
3480.00,0.0016
3479.00,0.0016
3478.00,0.0016
3477.00,0.0016
3476.00,0.0016
3475.00,0.0017
3474.00,0.0017
3473.00,0.0017
3472.00,0.0017
3471.00,0.0017
3470.00,0.0017
3469.00,0.0017
3468.00,0.0017
3467.00,0.0018
3466.00,0.0018
3465.00,0.0018
3464.00,0.0018
3463.00,0.0017
3462.00,0.0018
3461.00,0.0018
3460.00,0.0018
3459.00,0.0018
3458.00,0.0017
3457.00,0.0017
3456.00,0.0018
3455.00,0.0018
3454.00,0.0018
3453.00,0.0018
3452.00,0.0018
3451.00,0.0018
3450.00,0.0018
3449.00,0.0018
3448.00,0.0018
3447.00,0.0018
3446.00,0.0018
3445.00,0.0018
3444.00,0.0018
3443.00,0.0018
3442.00,0.0018
3441.00,0.0018
3440.00,0.0018
3439.00,0.0018
3438.00,0.0018
3437.00,0.0018
3436.00,0.0018
3435.00,0.0018
3434.00,0.0018
3433.00,0.0018
3432.00,0.0018
3431.00,0.0018
3430.00,0.0018
3429.00,0.0018
3428.00,0.0018
3427.00,0.0018
3426.00,0.0018
3425.00,0.0018
3424.00,0.0018
3423.00,0.0018
3422.00,0.0018
3421.00,0.0018
3420.00,0.0018
3419.00,0.0018
3418.00,0.0018
3417.00,0.0018
3416.00,0.0018
3415.00,0.0018
3414.00,0.0018
3413.00,0.0018
3412.00,0.0018
3411.00,0.0018
3410.00,0.0018
3409.00,0.0018
3408.00,0.0018
3407.00,0.0018
3406.00,0.0018
3405.00,0.0018
3404.00,0.0018
3403.00,0.0018
3402.00,0.0018
3401.00,0.0018
3400.00,0.0018
3399.00,0.0018
3398.00,0.0018
3397.00,0.0018
3396.00,0.0018
3395.00,0.0018
3394.00,0.0018
3393.00,0.0018
3392.00,0.0018
3391.00,0.0018
3390.00,0.0018
3389.00,0.0018
3388.00,0.0018
3387.00,0.0018
3386.00,0.0018
3385.00,0.0018
3384.00,0.0018
3383.00,0.0018
3382.00,0.0018
3381.00,0.0018
3380.00,0.0018
3379.00,0.0018
3378.00,0.0018
3377.00,0.0018
3376.00,0.0018
3375.00,0.0018
3374.00,0.0018
3373.00,0.0018
3372.00,0.0017
3371.00,0.0017
3370.00,0.0017
3369.00,0.0018
3368.00,0.0018
3367.00,0.0018
3366.00,0.0018
3365.00,0.0018
3364.00,0.0018
3363.00,0.0018
3362.00,0.0018
3361.00,0.0018
3360.00,0.0018
3359.00,0.0018
3358.00,0.0018
3357.00,0.0018
3356.00,0.0018
3355.00,0.0018
3354.00,0.0017
3353.00,0.0017
3352.00,0.0017
3351.00,0.0017
3350.00,0.0017
3349.00,0.0017
3348.00,0.0017
3347.00,0.0017
3346.00,0.0017
3345.00,0.0017
3344.00,0.0017
3343.00,0.0017
3342.00,0.0017
3341.00,0.0017
3340.00,0.0017
3339.00,0.0017
3338.00,0.0017
3337.00,0.0017
3336.00,0.0017
3335.00,0.0017
3334.00,0.0017
3333.00,0.0017
3332.00,0.0017
3331.00,0.0017
3330.00,0.0017
3329.00,0.0018
3328.00,0.0018
3327.00,0.0018
3326.00,0.0017
3325.00,0.0017
3324.00,0.0017
3323.00,0.0017
3322.00,0.0017
3321.00,0.0017
3320.00,0.0017
3319.00,0.0017
3318.00,0.0017
3317.00,0.0017
3316.00,0.0017
3315.00,0.0017
3314.00,0.0017
3313.00,0.0017
3312.00,0.0017
3311.00,0.0017
3310.00,0.0017
3309.00,0.0017
3308.00,0.0017
3307.00,0.0017
3306.00,0.0017
3305.00,0.0016
3304.00,0.0016
3303.00,0.0016
3302.00,0.0016
3301.00,0.0017
3300.00,0.0017
3299.00,0.0017
3298.00,0.0017
3297.00,0.0017
3296.00,0.0017
3295.00,0.0017
3294.00,0.0017
3293.00,0.0017
3292.00,0.0017
3291.00,0.0016
3290.00,0.0016
3289.00,0.0016
3288.00,0.0016
3287.00,0.0016
3286.00,0.0016
3285.00,0.0016
3284.00,0.0017
3283.00,0.0017
3282.00,0.0017
3281.00,0.0017
3280.00,0.0017
3279.00,0.0017
3278.00,0.0017
3277.00,0.0017
3276.00,0.0017
3275.00,0.0016
3274.00,0.0016
3273.00,0.0016
3272.00,0.0016
3271.00,0.0015
3270.00,0.0015
3269.00,0.0015
3268.00,0.0015
3267.00,0.0016
3266.00,0.0016
3265.00,0.0016
3264.00,0.0016
3263.00,0.0016
3262.00,0.0016
3261.00,0.0015
3260.00,0.0016
3259.00,0.0016
3258.00,0.0016
3257.00,0.0016
3256.00,0.0016
3255.00,0.0016
3254.00,0.0016
3253.00,0.0016
3252.00,0.0016
3251.00,0.0016
3250.00,0.0016
3249.00,0.0016
3248.00,0.0016
3247.00,0.0016
3246.00,0.0016
3245.00,0.0016
3244.00,0.0015
3243.00,0.0015
3242.00,0.0015
3241.00,0.0015
3240.00,0.0015
3239.00,0.0015
3238.00,0.0015
3237.00,0.0015
3236.00,0.0015
3235.00,0.0015
3234.00,0.0015
3233.00,0.0015
3232.00,0.0015
3231.00,0.0015
3230.00,0.0015
3229.00,0.0015
3228.00,0.0015
3227.00,0.0015
3226.00,0.0015
3225.00,0.0015
3224.00,0.0015
3223.00,0.0015
3222.00,0.0015
3221.00,0.0015
3220.00,0.0015
3219.00,0.0015
3218.00,0.0015
3217.00,0.0015
3216.00,0.0015
3215.00,0.0015
3214.00,0.0015
3213.00,0.0015
3212.00,0.0015
3211.00,0.0015
3210.00,0.0015
3209.00,0.0016
3208.00,0.0016
3207.00,0.0016
3206.00,0.0016
3205.00,0.0016
3204.00,0.0016
3203.00,0.0016
3202.00,0.0016
3201.00,0.0016
3200.00,0.0016
3199.00,0.0016
3198.00,0.0016
3197.00,0.0016
3196.00,0.0015
3195.00,0.0015
3194.00,0.0015
3193.00,0.0015
3192.00,0.0015
3191.00,0.0014
3190.00,0.0014
3189.00,0.0014
3188.00,0.0014
3187.00,0.0014
3186.00,0.0014
3185.00,0.0014
3184.00,0.0014
3183.00,0.0014
3182.00,0.0014
3181.00,0.0014
3180.00,0.0014
3179.00,0.0014
3178.00,0.0014
3177.00,0.0015
3176.00,0.0015
3175.00,0.0014
3174.00,0.0014
3173.00,0.0014
3172.00,0.0014
3171.00,0.0015
3170.00,0.0015
3169.00,0.0015
3168.00,0.0015
3167.00,0.0015
3166.00,0.0015
3165.00,0.0015
3164.00,0.0015
3163.00,0.0015
3162.00,0.0015
3161.00,0.0015
3160.00,0.0014
3159.00,0.0014
3158.00,0.0014
3157.00,0.0014
3156.00,0.0014
3155.00,0.0014
3154.00,0.0014
3153.00,0.0014
3152.00,0.0014
3151.00,0.0014
3150.00,0.0013
3149.00,0.0013
3148.00,0.0012
3147.00,0.0012
3146.00,0.0012
3145.00,0.0013
3144.00,0.0013
3143.00,0.0012
3142.00,0.0012
3141.00,0.0012
3140.00,0.0012
3139.00,0.0012
3138.00,0.0012
3137.00,0.0012
3136.00,0.0013
3135.00,0.0013
3134.00,0.0013
3133.00,0.0013
3132.00,0.0012
3131.00,0.0012
3130.00,0.0012
3129.00,0.0013
3128.00,0.0013
3127.00,0.0013
3126.00,0.0013
3125.00,0.0013
3124.00,0.0013
3123.00,0.0014
3122.00,0.0014
3121.00,0.0014
3120.00,0.0015
3119.00,0.0015
3118.00,0.0016
3117.00,0.0016
3116.00,0.0017
3115.00,0.0018
3114.00,0.0019
3113.00,0.0020
3112.00,0.0022
3111.00,0.0024
3110.00,0.0025
3109.00,0.0027
3108.00,0.0029
3107.00,0.0031
3106.00,0.0033
3105.00,0.0034
3104.00,0.0034
3103.00,0.0034
3102.00,0.0033
3101.00,0.0033
3100.00,0.0032
3099.00,0.0032
3098.00,0.0032
3097.00,0.0032
3096.00,0.0033
3095.00,0.0034
3094.00,0.0036
3093.00,0.0039
3092.00,0.0042
3091.00,0.0046
3090.00,0.0051
3089.00,0.0057
3088.00,0.0063
3087.00,0.0069
3086.00,0.0075
3085.00,0.0079
3084.00,0.0082
3083.00,0.0083
3082.00,0.0083
3081.00,0.0081
3080.00,0.0077
3079.00,0.0073
3078.00,0.0070
3077.00,0.0066
3076.00,0.0064
3075.00,0.0062
3074.00,0.0062
3073.00,0.0062
3072.00,0.0064
3071.00,0.0066
3070.00,0.0069
3069.00,0.0073
3068.00,0.0078
3067.00,0.0084
3066.00,0.0090
3065.00,0.0096
3064.00,0.0102
3063.00,0.0107
3062.00,0.0111
3061.00,0.0113
3060.00,0.0114
3059.00,0.0112
3058.00,0.0108
3057.00,0.0103
3056.00,0.0098
3055.00,0.0091
3054.00,0.0086
3053.00,0.0080
3052.00,0.0075
3051.00,0.0071
3050.00,0.0067
3049.00,0.0064
3048.00,0.0062
3047.00,0.0061
3046.00,0.0060
3045.00,0.0061
3044.00,0.0062
3043.00,0.0064
3042.00,0.0066
3041.00,0.0070
3040.00,0.0074
3039.00,0.0079
3038.00,0.0085
3037.00,0.0093
3036.00,0.0101
3035.00,0.0112
3034.00,0.0124
3033.00,0.0137
3032.00,0.0152
3031.00,0.0167
3030.00,0.0182
3029.00,0.0195
3028.00,0.0206
3027.00,0.0214
3026.00,0.0216
3025.00,0.0214
3024.00,0.0206
3023.00,0.0193
3022.00,0.0178
3021.00,0.0160
3020.00,0.0142
3019.00,0.0125
3018.00,0.0110
3017.00,0.0097
3016.00,0.0086
3015.00,0.0078
3014.00,0.0071
3013.00,0.0066
3012.00,0.0062
3011.00,0.0060
3010.00,0.0058
3009.00,0.0058
3008.00,0.0059
3007.00,0.0060
3006.00,0.0062
3005.00,0.0063
3004.00,0.0065
3003.00,0.0066
3002.00,0.0066
3001.00,0.0065
3000.00,0.0062
2999.00,0.0059
2998.00,0.0055
2997.00,0.0051
2996.00,0.0048
2995.00,0.0044
2994.00,0.0041
2993.00,0.0039
2992.00,0.0038
2991.00,0.0037
2990.00,0.0036
2989.00,0.0036
2988.00,0.0036
2987.00,0.0036
2986.00,0.0036
2985.00,0.0036
2984.00,0.0036
2983.00,0.0035
2982.00,0.0035
2981.00,0.0035
2980.00,0.0036
2979.00,0.0037
2978.00,0.0037
2977.00,0.0038
2976.00,0.0039
2975.00,0.0039
2974.00,0.0040
2973.00,0.0041
2972.00,0.0042
2971.00,0.0043
2970.00,0.0044
2969.00,0.0045
2968.00,0.0046
2967.00,0.0047
2966.00,0.0049
2965.00,0.0050
2964.00,0.0051
2963.00,0.0053
2962.00,0.0055
2961.00,0.0057
2960.00,0.0059
2959.00,0.0062
2958.00,0.0064
2957.00,0.0067
2956.00,0.0069
2955.00,0.0072
2954.00,0.0075
2953.00,0.0079
2952.00,0.0082
2951.00,0.0086
2950.00,0.0090
2949.00,0.0095
2948.00,0.0100
2947.00,0.0105
2946.00,0.0111
2945.00,0.0117
2944.00,0.0123
2943.00,0.0129
2942.00,0.0137
2941.00,0.0144
2940.00,0.0152
2939.00,0.0160
2938.00,0.0168
2937.00,0.0177
2936.00,0.0186
2935.00,0.0195
2934.00,0.0204
2933.00,0.0213
2932.00,0.0222
2931.00,0.0230
2930.00,0.0239
2929.00,0.0246
2928.00,0.0253
2927.00,0.0259
2926.00,0.0263
2925.00,0.0267
2924.00,0.0270
2923.00,0.0272
2922.00,0.0272
2921.00,0.0272
2920.00,0.0270
2919.00,0.0267
2918.00,0.0264
2917.00,0.0260
2916.00,0.0256
2915.00,0.0251
2914.00,0.0245
2913.00,0.0239
2912.00,0.0233
2911.00,0.0227
2910.00,0.0220
2909.00,0.0214
2908.00,0.0208
2907.00,0.0202
2906.00,0.0195
2905.00,0.0189
2904.00,0.0182
2903.00,0.0175
2902.00,0.0169
2901.00,0.0162
2900.00,0.0156
2899.00,0.0149
2898.00,0.0143
2897.00,0.0138
2896.00,0.0133
2895.00,0.0128
2894.00,0.0124
2893.00,0.0121
2892.00,0.0117
2891.00,0.0114
2890.00,0.0111
2889.00,0.0108
2888.00,0.0106
2887.00,0.0103
2886.00,0.0101
2885.00,0.0098
2884.00,0.0096
2883.00,0.0094
2882.00,0.0092
2881.00,0.0090
2880.00,0.0087
2879.00,0.0086
2878.00,0.0084
2877.00,0.0082
2876.00,0.0080
2875.00,0.0079
2874.00,0.0078
2873.00,0.0077
2872.00,0.0077
2871.00,0.0076
2870.00,0.0076
2869.00,0.0076
2868.00,0.0076
2867.00,0.0077
2866.00,0.0078
2865.00,0.0080
2864.00,0.0082
2863.00,0.0085
2862.00,0.0088
2861.00,0.0091
2860.00,0.0095
2859.00,0.0099
2858.00,0.0103
2857.00,0.0107
2856.00,0.0111
2855.00,0.0114
2854.00,0.0118
2853.00,0.0120
2852.00,0.0123
2851.00,0.0124
2850.00,0.0124
2849.00,0.0124
2848.00,0.0122
2847.00,0.0119
2846.00,0.0115
2845.00,0.0110
2844.00,0.0104
2843.00,0.0097
2842.00,0.0091
2841.00,0.0084
2840.00,0.0077
2839.00,0.0070
2838.00,0.0064
2837.00,0.0059
2836.00,0.0054
2835.00,0.0050
2834.00,0.0047
2833.00,0.0044
2832.00,0.0041
2831.00,0.0039
2830.00,0.0037
2829.00,0.0035
2828.00,0.0034
2827.00,0.0033
2826.00,0.0032
2825.00,0.0031
2824.00,0.0031
2823.00,0.0030
2822.00,0.0030
2821.00,0.0029
2820.00,0.0029
2819.00,0.0028
2818.00,0.0028
2817.00,0.0028
2816.00,0.0028
2815.00,0.0027
2814.00,0.0027
2813.00,0.0027
2812.00,0.0027
2811.00,0.0026
2810.00,0.0026
2809.00,0.0025
2808.00,0.0025
2807.00,0.0025
2806.00,0.0025
2805.00,0.0024
2804.00,0.0024
2803.00,0.0024
2802.00,0.0024
2801.00,0.0023
2800.00,0.0023
2799.00,0.0022
2798.00,0.0022
2797.00,0.0022
2796.00,0.0022
2795.00,0.0022
2794.00,0.0021
2793.00,0.0021
2792.00,0.0021
2791.00,0.0021
2790.00,0.0021
2789.00,0.0021
2788.00,0.0021
2787.00,0.0021
2786.00,0.0020
2785.00,0.0020
2784.00,0.0020
2783.00,0.0020
2782.00,0.0020
2781.00,0.0020
2780.00,0.0020
2779.00,0.0020
2778.00,0.0020
2777.00,0.0020
2776.00,0.0019
2775.00,0.0019
2774.00,0.0019
2773.00,0.0019
2772.00,0.0019
2771.00,0.0018
2770.00,0.0018
2769.00,0.0018
2768.00,0.0018
2767.00,0.0018
2766.00,0.0018
2765.00,0.0018
2764.00,0.0018
2763.00,0.0018
2762.00,0.0018
2761.00,0.0017
2760.00,0.0017
2759.00,0.0017
2758.00,0.0017
2757.00,0.0017
2756.00,0.0017
2755.00,0.0017
2754.00,0.0017
2753.00,0.0017
2752.00,0.0017
2751.00,0.0017
2750.00,0.0017
2749.00,0.0016
2748.00,0.0016
2747.00,0.0016
2746.00,0.0016
2745.00,0.0017
2744.00,0.0017
2743.00,0.0017
2742.00,0.0017
2741.00,0.0017
2740.00,0.0017
2739.00,0.0017
2738.00,0.0017
2737.00,0.0017
2736.00,0.0017
2735.00,0.0017
2734.00,0.0018
2733.00,0.0017
2732.00,0.0017
2731.00,0.0017
2730.00,0.0017
2729.00,0.0017
2728.00,0.0017
2727.00,0.0017
2726.00,0.0017
2725.00,0.0017
2724.00,0.0017
2723.00,0.0017
2722.00,0.0017
2721.00,0.0017
2720.00,0.0017
2719.00,0.0017
2718.00,0.0017
2717.00,0.0017
2716.00,0.0017
2715.00,0.0017
2714.00,0.0017
2713.00,0.0017
2712.00,0.0017
2711.00,0.0017
2710.00,0.0017
2709.00,0.0016
2708.00,0.0016
2707.00,0.0016
2706.00,0.0016
2705.00,0.0016
2704.00,0.0016
2703.00,0.0016
2702.00,0.0016
2701.00,0.0016
2700.00,0.0016
2699.00,0.0016
2698.00,0.0016
2697.00,0.0016
2696.00,0.0017
2695.00,0.0017
2694.00,0.0016
2693.00,0.0016
2692.00,0.0016
2691.00,0.0016
2690.00,0.0016
2689.00,0.0016
2688.00,0.0017
2687.00,0.0016
2686.00,0.0016
2685.00,0.0016
2684.00,0.0016
2683.00,0.0016
2682.00,0.0016
2681.00,0.0016
2680.00,0.0016
2679.00,0.0016
2678.00,0.0016
2677.00,0.0016
2676.00,0.0016
2675.00,0.0017
2674.00,0.0017
2673.00,0.0017
2672.00,0.0017
2671.00,0.0017
2670.00,0.0017
2669.00,0.0017
2668.00,0.0017
2667.00,0.0017
2666.00,0.0018
2665.00,0.0018
2664.00,0.0019
2663.00,0.0019
2662.00,0.0020
2661.00,0.0020
2660.00,0.0020
2659.00,0.0020
2658.00,0.0020
2657.00,0.0020
2656.00,0.0021
2655.00,0.0021
2654.00,0.0021
2653.00,0.0021
2652.00,0.0021
2651.00,0.0021
2650.00,0.0021
2649.00,0.0022
2648.00,0.0022
2647.00,0.0022
2646.00,0.0022
2645.00,0.0022
2644.00,0.0021
2643.00,0.0022
2642.00,0.0022
2641.00,0.0022
2640.00,0.0022
2639.00,0.0022
2638.00,0.0022
2637.00,0.0022
2636.00,0.0022
2635.00,0.0022
2634.00,0.0022
2633.00,0.0022
2632.00,0.0022
2631.00,0.0022
2630.00,0.0022
2629.00,0.0021
2628.00,0.0021
2627.00,0.0020
2626.00,0.0020
2625.00,0.0020
2624.00,0.0020
2623.00,0.0020
2622.00,0.0020
2621.00,0.0020
2620.00,0.0020
2619.00,0.0020
2618.00,0.0020
2617.00,0.0019
2616.00,0.0019
2615.00,0.0019
2614.00,0.0019
2613.00,0.0019
2612.00,0.0019
2611.00,0.0018
2610.00,0.0019
2609.00,0.0019
2608.00,0.0019
2607.00,0.0019
2606.00,0.0019
2605.00,0.0019
2604.00,0.0019
2603.00,0.0019
2602.00,0.0019
2601.00,0.0019
2600.00,0.0018
2599.00,0.0018
2598.00,0.0018
2597.00,0.0017
2596.00,0.0017
2595.00,0.0016
2594.00,0.0016
2593.00,0.0016
2592.00,0.0016
2591.00,0.0016
2590.00,0.0016
2589.00,0.0016
2588.00,0.0016
2587.00,0.0016
2586.00,0.0016
2585.00,0.0016
2584.00,0.0016
2583.00,0.0016
2582.00,0.0015
2581.00,0.0015
2580.00,0.0015
2579.00,0.0016
2578.00,0.0016
2577.00,0.0016
2576.00,0.0016
2575.00,0.0015
2574.00,0.0015
2573.00,0.0014
2572.00,0.0014
2571.00,0.0014
2570.00,0.0015
2569.00,0.0015
2568.00,0.0015
2567.00,0.0014
2566.00,0.0014
2565.00,0.0014
2564.00,0.0013
2563.00,0.0013
2562.00,0.0013
2561.00,0.0013
2560.00,0.0014
2559.00,0.0014
2558.00,0.0014
2557.00,0.0014
2556.00,0.0014
2555.00,0.0014
2554.00,0.0014
2553.00,0.0014
2552.00,0.0014
2551.00,0.0014
2550.00,0.0013
2549.00,0.0013
2548.00,0.0013
2547.00,0.0013
2546.00,0.0013
2545.00,0.0013
2544.00,0.0012
2543.00,0.0012
2542.00,0.0012
2541.00,0.0012
2540.00,0.0012
2539.00,0.0012
2538.00,0.0012
2537.00,0.0011
2536.00,0.0011
2535.00,0.0011
2534.00,0.0012
2533.00,0.0012
2532.00,0.0012
2531.00,0.0012
2530.00,0.0012
2529.00,0.0012
2528.00,0.0012
2527.00,0.0012
2526.00,0.0012
2525.00,0.0012
2524.00,0.0012
2523.00,0.0012
2522.00,0.0012
2521.00,0.0012
2520.00,0.0012
2519.00,0.0012
2518.00,0.0011
2517.00,0.0011
2516.00,0.0011
2515.00,0.0011
2514.00,0.0012
2513.00,0.0012
2512.00,0.0012
2511.00,0.0012
2510.00,0.0012
2509.00,0.0012
2508.00,0.0011
2507.00,0.0011
2506.00,0.0011
2505.00,0.0011
2504.00,0.0012
2503.00,0.0012
2502.00,0.0012
2501.00,0.0012
2500.00,0.0012
2499.00,0.0012
2498.00,0.0012
2497.00,0.0012
2496.00,0.0012
2495.00,0.0012
2494.00,0.0012
2493.00,0.0011
2492.00,0.0011
2491.00,0.0011
2490.00,0.0010
2489.00,0.0010
2488.00,0.0010
2487.00,0.0011
2486.00,0.0011
2485.00,0.0011
2484.00,0.0011
2483.00,0.0011
2482.00,0.0011
2481.00,0.0010
2480.00,0.0010
2479.00,0.0010
2478.00,0.0010
2477.00,0.0010
2476.00,0.0010
2475.00,0.0010
2474.00,0.0010
2473.00,0.0009
2472.00,0.0009
2471.00,0.0009
2470.00,0.0009
2469.00,0.0009
2468.00,0.0009
2467.00,0.0009
2466.00,0.0009
2465.00,0.0010
2464.00,0.0010
2463.00,0.0010
2462.00,0.0010
2461.00,0.0010
2460.00,0.0010
2459.00,0.0011
2458.00,0.0011
2457.00,0.0011
2456.00,0.0011
2455.00,0.0010
2454.00,0.0010
2453.00,0.0010
2452.00,0.0010
2451.00,0.0010
2450.00,0.0010
2449.00,0.0010
2448.00,0.0010
2447.00,0.0010
2446.00,0.0010
2445.00,0.0010
2444.00,0.0010
2443.00,0.0010
2442.00,0.0010
2441.00,0.0010
2440.00,0.0010
2439.00,0.0010
2438.00,0.0010
2437.00,0.0009
2436.00,0.0009
2435.00,0.0008
2434.00,0.0008
2433.00,0.0008
2432.00,0.0008
2431.00,0.0008
2430.00,0.0008
2429.00,0.0007
2428.00,0.0007
2427.00,0.0007
2426.00,0.0007
2425.00,0.0007
2424.00,0.0007
2423.00,0.0007
2422.00,0.0007
2421.00,0.0007
2420.00,0.0007
2419.00,0.0007
2418.00,0.0006
2417.00,0.0006
2416.00,0.0006
2415.00,0.0006
2414.00,0.0006
2413.00,0.0006
2412.00,0.0006
2411.00,0.0006
2410.00,0.0005
2409.00,0.0005
2408.00,0.0005
2407.00,0.0005
2406.00,0.0005
2405.00,0.0005
2404.00,0.0005
2403.00,0.0005
2402.00,0.0005
2401.00,0.0005
2400.00,0.0005
2399.00,0.0005
2398.00,0.0005
2397.00,0.0005
2396.00,0.0006
2395.00,0.0006
2394.00,0.0006
2393.00,0.0006
2392.00,0.0006
2391.00,0.0006
2390.00,0.0005
2389.00,0.0005
2388.00,0.0005
2387.00,0.0005
2386.00,0.0005
2385.00,0.0005
2384.00,0.0005
2383.00,0.0005
2382.00,0.0005
2381.00,0.0004
2380.00,0.0004
2379.00,0.0004
2378.00,0.0005
2377.00,0.0005
2376.00,0.0005
2375.00,0.0006
2374.00,0.0006
2373.00,0.0006
2372.00,0.0006
2371.00,0.0005
2370.00,0.0005
2369.00,0.0005
2368.00,0.0005
2367.00,0.0006
2366.00,0.0006
2365.00,0.0006
2364.00,0.0006
2363.00,0.0007
2362.00,0.0007
2361.00,0.0008
2360.00,0.0008
2359.00,0.0009
2358.00,0.0009
2357.00,0.0009
2356.00,0.0009
2355.00,0.0009
2354.00,0.0009
2353.00,0.0010
2352.00,0.0010
2351.00,0.0010
2350.00,0.0010
2349.00,0.0011
2348.00,0.0011
2347.00,0.0012
2346.00,0.0012
2345.00,0.0012
2344.00,0.0013
2343.00,0.0013
2342.00,0.0014
2341.00,0.0014
2340.00,0.0015
2339.00,0.0015
2338.00,0.0015
2337.00,0.0015
2336.00,0.0015
2335.00,0.0015
2334.00,0.0014
2333.00,0.0014
2332.00,0.0014
2331.00,0.0014
2330.00,0.0014
2329.00,0.0016
2328.00,0.0019
2327.00,0.0023
2326.00,0.0026
2325.00,0.0026
2324.00,0.0026
2323.00,0.0024
2322.00,0.0023
2321.00,0.0021
2320.00,0.0020
2319.00,0.0020
2318.00,0.0019
2317.00,0.0018
2316.00,0.0018
2315.00,0.0018
2314.00,0.0018
2313.00,0.0018
2312.00,0.0018
2311.00,0.0017
2310.00,0.0016
2309.00,0.0015
2308.00,0.0015
2307.00,0.0014
2306.00,0.0014
2305.00,0.0014
2304.00,0.0014
2303.00,0.0014
2302.00,0.0014
2301.00,0.0014
2300.00,0.0014
2299.00,0.0014
2298.00,0.0014
2297.00,0.0015
2296.00,0.0016
2295.00,0.0017
2294.00,0.0018
2293.00,0.0018
2292.00,0.0019
2291.00,0.0020
2290.00,0.0021
2289.00,0.0022
2288.00,0.0022
2287.00,0.0022
2286.00,0.0021
2285.00,0.0020
2284.00,0.0019
2283.00,0.0018
2282.00,0.0017
2281.00,0.0017
2280.00,0.0016
2279.00,0.0016
2278.00,0.0015
2277.00,0.0015
2276.00,0.0015
2275.00,0.0014
2274.00,0.0014
2273.00,0.0014
2272.00,0.0014
2271.00,0.0013
2270.00,0.0013
2269.00,0.0012
2268.00,0.0012
2267.00,0.0012
2266.00,0.0011
2265.00,0.0011
2264.00,0.0011
2263.00,0.0012
2262.00,0.0013
2261.00,0.0014
2260.00,0.0015
2259.00,0.0014
2258.00,0.0013
2257.00,0.0011
2256.00,0.0010
2255.00,0.0010
2254.00,0.0010
2253.00,0.0011
2252.00,0.0011
2251.00,0.0011
2250.00,0.0011
2249.00,0.0011
2248.00,0.0011
2247.00,0.0011
2246.00,0.0011
2245.00,0.0011
2244.00,0.0010
2243.00,0.0010
2242.00,0.0010
2241.00,0.0010
2240.00,0.0010
2239.00,0.0010
2238.00,0.0010
2237.00,0.0010
2236.00,0.0010
2235.00,0.0011
2234.00,0.0012
2233.00,0.0012
2232.00,0.0011
2231.00,0.0011
2230.00,0.0010
2229.00,0.0009
2228.00,0.0009
2227.00,0.0010
2226.00,0.0010
2225.00,0.0010
2224.00,0.0010
2223.00,0.0009
2222.00,0.0009
2221.00,0.0009
2220.00,0.0009
2219.00,0.0009
2218.00,0.0008
2217.00,0.0008
2216.00,0.0009
2215.00,0.0010
2214.00,0.0010
2213.00,0.0010
2212.00,0.0009
2211.00,0.0008
2210.00,0.0008
2209.00,0.0009
2208.00,0.0009
2207.00,0.0009
2206.00,0.0008
2205.00,0.0008
2204.00,0.0008
2203.00,0.0008
2202.00,0.0008
2201.00,0.0007
2200.00,0.0007
2199.00,0.0007
2198.00,0.0008
2197.00,0.0008
2196.00,0.0008
2195.00,0.0008
2194.00,0.0009
2193.00,0.0009
2192.00,0.0010
2191.00,0.0012
2190.00,0.0012
2189.00,0.0012
2188.00,0.0012
2187.00,0.0012
2186.00,0.0011
2185.00,0.0009
2184.00,0.0007
2183.00,0.0006
2182.00,0.0006
2181.00,0.0007
2180.00,0.0009
2179.00,0.0010
2178.00,0.0009
2177.00,0.0007
2176.00,0.0004
2175.00,0.0002
2174.00,0.0002
2173.00,0.0004
2172.00,0.0006
2171.00,0.0010
2170.00,0.0013
2169.00,0.0015
2168.00,0.0017
2167.00,0.0018
2166.00,0.0019
2165.00,0.0021
2164.00,0.0024
2163.00,0.0024
2162.00,0.0019
2161.00,0.0006
2160.00,-0.0011
2159.00,-0.0025
2158.00,-0.0031
2157.00,-0.0030
2156.00,-0.0026
2155.00,-0.0022
2154.00,-0.0019
2153.00,-0.0017
2152.00,-0.0014
2151.00,-0.0012
2150.00,-0.0012
2149.00,-0.0013
2148.00,-0.0014
2147.00,-0.0015
2146.00,-0.0015
2145.00,-0.0015
2144.00,-0.0014
2143.00,-0.0013
2142.00,-0.0012
2141.00,-0.0011
2140.00,-0.0010
2139.00,-0.0010
2138.00,-0.0012
2137.00,-0.0015
2136.00,-0.0018
2135.00,-0.0020
2134.00,-0.0021
2133.00,-0.0020
2132.00,-0.0018
2131.00,-0.0015
2130.00,-0.0013
2129.00,-0.0012
2128.00,-0.0011
2127.00,-0.0009
2126.00,-0.0008
2125.00,-0.0006
2124.00,-0.0004
2123.00,-0.0003
2122.00,-0.0002
2121.00,-0.0001
2120.00,0.0000
2119.00,0.0001
2118.00,0.0002
2117.00,0.0003
2116.00,0.0005
2115.00,0.0005
2114.00,0.0006
2113.00,0.0006
2112.00,0.0006
2111.00,0.0005
2110.00,0.0005
2109.00,0.0004
2108.00,0.0004
2107.00,0.0004
2106.00,0.0004
2105.00,0.0005
2104.00,0.0005
2103.00,0.0005
2102.00,0.0005
2101.00,0.0005
2100.00,0.0004
2099.00,0.0003
2098.00,0.0001
2097.00,-0.0002
2096.00,-0.0003
2095.00,-0.0003
2094.00,-0.0001
2093.00,0.0000
2092.00,0.0001
2091.00,0.0002
2090.00,0.0003
2089.00,0.0004
2088.00,0.0005
2087.00,0.0005
2086.00,0.0005
2085.00,0.0005
2084.00,0.0005
2083.00,0.0005
2082.00,0.0006
2081.00,0.0007
2080.00,0.0007
2079.00,0.0006
2078.00,0.0006
2077.00,0.0006
2076.00,0.0005
2075.00,0.0005
2074.00,0.0005
2073.00,0.0005
2072.00,0.0005
2071.00,0.0005
2070.00,0.0004
2069.00,0.0004
2068.00,0.0003
2067.00,0.0002
2066.00,0.0002
2065.00,0.0001
2064.00,0.0001
2063.00,0.0001
2062.00,0.0001
2061.00,0.0001
2060.00,0.0001
2059.00,0.0001
2058.00,0.0001
2057.00,0.0001
2056.00,0.0001
2055.00,0.0002
2054.00,0.0004
2053.00,0.0009
2052.00,0.0013
2051.00,0.0014
2050.00,0.0011
2049.00,0.0008
2048.00,0.0005
2047.00,0.0004
2046.00,0.0004
2045.00,0.0005
2044.00,0.0005
2043.00,0.0005
2042.00,0.0005
2041.00,0.0003
2040.00,0.0002
2039.00,0.0002
2038.00,0.0003
2037.00,0.0003
2036.00,0.0002
2035.00,0.0000
2034.00,-0.0002
2033.00,-0.0004
2032.00,-0.0004
2031.00,-0.0003
2030.00,-0.0002
2029.00,-0.0001
2028.00,-0.0001
2027.00,-0.0002
2026.00,-0.0003
2025.00,-0.0004
2024.00,-0.0005
2023.00,-0.0005
2022.00,-0.0004
2021.00,-0.0002
2020.00,-0.0000
2019.00,0.0001
2018.00,0.0001
2017.00,-0.0000
2016.00,-0.0001
2015.00,-0.0002
2014.00,-0.0002
2013.00,-0.0001
2012.00,0.0001
2011.00,0.0003
2010.00,0.0004
2009.00,0.0001
2008.00,-0.0004
2007.00,-0.0009
2006.00,-0.0012
2005.00,-0.0012
2004.00,-0.0010
2003.00,-0.0007
2002.00,-0.0005
2001.00,-0.0003
2000.00,-0.0002
1999.00,-0.0002
1998.00,-0.0001
1997.00,0.0001
1996.00,0.0002
1995.00,0.0002
1994.00,0.0001
1993.00,0.0001
1992.00,0.0002
1991.00,0.0003
1990.00,0.0005
1989.00,0.0006
1988.00,0.0007
1987.00,0.0007
1986.00,0.0008
1985.00,0.0011
1984.00,0.0014
1983.00,0.0018
1982.00,0.0022
1981.00,0.0023
1980.00,0.0020
1979.00,0.0014
1978.00,0.0007
1977.00,0.0002
1976.00,-0.0001
1975.00,-0.0002
1974.00,-0.0002
1973.00,-0.0002
1972.00,-0.0000
1971.00,0.0000
1970.00,0.0001
1969.00,0.0001
1968.00,0.0002
1967.00,0.0004
1966.00,0.0006
1965.00,0.0008
1964.00,0.0010
1963.00,0.0011
1962.00,0.0009
1961.00,0.0007
1960.00,0.0005
1959.00,0.0005
1958.00,0.0007
1957.00,0.0011
1956.00,0.0013
1955.00,0.0015
1954.00,0.0017
1953.00,0.0018
1952.00,0.0019
1951.00,0.0020
1950.00,0.0021
1949.00,0.0022
1948.00,0.0024
1947.00,0.0025
1946.00,0.0025
1945.00,0.0026
1944.00,0.0025
1943.00,0.0025
1942.00,0.0024
1941.00,0.0023
1940.00,0.0022
1939.00,0.0021
1938.00,0.0020
1937.00,0.0019
1936.00,0.0017
1935.00,0.0016
1934.00,0.0014
1933.00,0.0012
1932.00,0.0010
1931.00,0.0008
1930.00,0.0006
1929.00,0.0004
1928.00,0.0004
1927.00,0.0004
1926.00,0.0003
1925.00,0.0003
1924.00,0.0003
1923.00,0.0004
1922.00,0.0005
1921.00,0.0005
1920.00,0.0004
1919.00,0.0003
1918.00,0.0002
1917.00,0.0001
1916.00,0.0001
1915.00,0.0001
1914.00,0.0001
1913.00,0.0001
1912.00,0.0001
1911.00,0.0001
1910.00,0.0002
1909.00,0.0003
1908.00,0.0003
1907.00,0.0003
1906.00,0.0003
1905.00,0.0003
1904.00,0.0004
1903.00,0.0005
1902.00,0.0005
1901.00,0.0006
1900.00,0.0006
1899.00,0.0006
1898.00,0.0007
1897.00,0.0008
1896.00,0.0008
1895.00,0.0009
1894.00,0.0010
1893.00,0.0011
1892.00,0.0012
1891.00,0.0014
1890.00,0.0015
1889.00,0.0016
1888.00,0.0017
1887.00,0.0018
1886.00,0.0018
1885.00,0.0018
1884.00,0.0019
1883.00,0.0019
1882.00,0.0020
1881.00,0.0020
1880.00,0.0021
1879.00,0.0022
1878.00,0.0023
1877.00,0.0023
1876.00,0.0024
1875.00,0.0025
1874.00,0.0026
1873.00,0.0027
1872.00,0.0027
1871.00,0.0026
1870.00,0.0025
1869.00,0.0024
1868.00,0.0024
1867.00,0.0024
1866.00,0.0023
1865.00,0.0023
1864.00,0.0022
1863.00,0.0021
1862.00,0.0020
1861.00,0.0018
1860.00,0.0016
1859.00,0.0015
1858.00,0.0014
1857.00,0.0013
1856.00,0.0012
1855.00,0.0011
1854.00,0.0010
1853.00,0.0009
1852.00,0.0008
1851.00,0.0008
1850.00,0.0007
1849.00,0.0006
1848.00,0.0005
1847.00,0.0005
1846.00,0.0005
1845.00,0.0004
1844.00,0.0004
1843.00,0.0004
1842.00,0.0004
1841.00,0.0005
1840.00,0.0005
1839.00,0.0006
1838.00,0.0006
1837.00,0.0006
1836.00,0.0006
1835.00,0.0007
1834.00,0.0007
1833.00,0.0008
1832.00,0.0009
1831.00,0.0009
1830.00,0.0009
1829.00,0.0010
1828.00,0.0011
1827.00,0.0011
1826.00,0.0012
1825.00,0.0013
1824.00,0.0013
1823.00,0.0014
1822.00,0.0015
1821.00,0.0015
1820.00,0.0015
1819.00,0.0015
1818.00,0.0015
1817.00,0.0015
1816.00,0.0017
1815.00,0.0019
1814.00,0.0021
1813.00,0.0022
1812.00,0.0024
1811.00,0.0025
1810.00,0.0026
1809.00,0.0027
1808.00,0.0028
1807.00,0.0029
1806.00,0.0030
1805.00,0.0031
1804.00,0.0031
1803.00,0.0031
1802.00,0.0031
1801.00,0.0031
1800.00,0.0031
1799.00,0.0030
1798.00,0.0029
1797.00,0.0028
1796.00,0.0027
1795.00,0.0026
1794.00,0.0025
1793.00,0.0023
1792.00,0.0022
1791.00,0.0020
1790.00,0.0020
1789.00,0.0019
1788.00,0.0019
1787.00,0.0018
1786.00,0.0017
1785.00,0.0016
1784.00,0.0016
1783.00,0.0016
1782.00,0.0017
1781.00,0.0017
1780.00,0.0017
1779.00,0.0017
1778.00,0.0018
1777.00,0.0018
1776.00,0.0018
1775.00,0.0018
1774.00,0.0019
1773.00,0.0019
1772.00,0.0019
1771.00,0.0019
1770.00,0.0019
1769.00,0.0019
1768.00,0.0019
1767.00,0.0019
1766.00,0.0020
1765.00,0.0021
1764.00,0.0022
1763.00,0.0022
1762.00,0.0023
1761.00,0.0023
1760.00,0.0024
1759.00,0.0025
1758.00,0.0026
1757.00,0.0027
1756.00,0.0029
1755.00,0.0030
1754.00,0.0031
1753.00,0.0032
1752.00,0.0033
1751.00,0.0034
1750.00,0.0035
1749.00,0.0036
1748.00,0.0038
1747.00,0.0039
1746.00,0.0039
1745.00,0.0040
1744.00,0.0040
1743.00,0.0040
1742.00,0.0040
1741.00,0.0041
1740.00,0.0041
1739.00,0.0041
1738.00,0.0041
1737.00,0.0040
1736.00,0.0040
1735.00,0.0039
1734.00,0.0038
1733.00,0.0037
1732.00,0.0037
1731.00,0.0036
1730.00,0.0036
1729.00,0.0036
1728.00,0.0035
1727.00,0.0035
1726.00,0.0034
1725.00,0.0033
1724.00,0.0032
1723.00,0.0032
1722.00,0.0032
1721.00,0.0031
1720.00,0.0031
1719.00,0.0030
1718.00,0.0030
1717.00,0.0029
1716.00,0.0028
1715.00,0.0028
1714.00,0.0028
1713.00,0.0028
1712.00,0.0028
1711.00,0.0028
1710.00,0.0028
1709.00,0.0028
1708.00,0.0029
1707.00,0.0029
1706.00,0.0029
1705.00,0.0029
1704.00,0.0029
1703.00,0.0029
1702.00,0.0029
1701.00,0.0029
1700.00,0.0029
1699.00,0.0030
1698.00,0.0030
1697.00,0.0030
1696.00,0.0031
1695.00,0.0032
1694.00,0.0032
1693.00,0.0033
1692.00,0.0034
1691.00,0.0035
1690.00,0.0036
1689.00,0.0036
1688.00,0.0037
1687.00,0.0037
1686.00,0.0038
1685.00,0.0039
1684.00,0.0041
1683.00,0.0043
1682.00,0.0044
1681.00,0.0044
1680.00,0.0044
1679.00,0.0044
1678.00,0.0045
1677.00,0.0045
1676.00,0.0046
1675.00,0.0047
1674.00,0.0047
1673.00,0.0047
1672.00,0.0047
1671.00,0.0047
1670.00,0.0048
1669.00,0.0048
1668.00,0.0049
1667.00,0.0049
1666.00,0.0048
1665.00,0.0048
1664.00,0.0047
1663.00,0.0046
1662.00,0.0046
1661.00,0.0045
1660.00,0.0045
1659.00,0.0044
1658.00,0.0043
1657.00,0.0042
1656.00,0.0041
1655.00,0.0040
1654.00,0.0038
1653.00,0.0037
1652.00,0.0037
1651.00,0.0037
1650.00,0.0037
1649.00,0.0037
1648.00,0.0036
1647.00,0.0035
1646.00,0.0034
1645.00,0.0033
1644.00,0.0032
1643.00,0.0032
1642.00,0.0031
1641.00,0.0031
1640.00,0.0030
1639.00,0.0030
1638.00,0.0029
1637.00,0.0029
1636.00,0.0029
1635.00,0.0029
1634.00,0.0029
1633.00,0.0028
1632.00,0.0028
1631.00,0.0028
1630.00,0.0028
1629.00,0.0029
1628.00,0.0029
1627.00,0.0029
1626.00,0.0028
1625.00,0.0028
1624.00,0.0029
1623.00,0.0029
1622.00,0.0029
1621.00,0.0030
1620.00,0.0030
1619.00,0.0031
1618.00,0.0032
1617.00,0.0033
1616.00,0.0035
1615.00,0.0037
1614.00,0.0039
1613.00,0.0042
1612.00,0.0047
1611.00,0.0053
1610.00,0.0063
1609.00,0.0075
1608.00,0.0092
1607.00,0.0111
1606.00,0.0133
1605.00,0.0156
1604.00,0.0178
1603.00,0.0196
1602.00,0.0206
1601.00,0.0207
1600.00,0.0198
1599.00,0.0182
1598.00,0.0161
1597.00,0.0140
1596.00,0.0121
1595.00,0.0105
1594.00,0.0093
1593.00,0.0083
1592.00,0.0075
1591.00,0.0070
1590.00,0.0066
1589.00,0.0065
1588.00,0.0068
1587.00,0.0073
1586.00,0.0080
1585.00,0.0087
1584.00,0.0091
1583.00,0.0091
1582.00,0.0085
1581.00,0.0076
1580.00,0.0067
1579.00,0.0058
1578.00,0.0051
1577.00,0.0045
1576.00,0.0040
1575.00,0.0037
1574.00,0.0034
1573.00,0.0033
1572.00,0.0031
1571.00,0.0030
1570.00,0.0028
1569.00,0.0027
1568.00,0.0026
1567.00,0.0025
1566.00,0.0025
1565.00,0.0024
1564.00,0.0024
1563.00,0.0024
1562.00,0.0024
1561.00,0.0024
1560.00,0.0024
1559.00,0.0024
1558.00,0.0024
1557.00,0.0024
1556.00,0.0025
1555.00,0.0025
1554.00,0.0025
1553.00,0.0026
1552.00,0.0027
1551.00,0.0028
1550.00,0.0029
1549.00,0.0029
1548.00,0.0030
1547.00,0.0031
1546.00,0.0032
1545.00,0.0032
1544.00,0.0033
1543.00,0.0034
1542.00,0.0034
1541.00,0.0034
1540.00,0.0033
1539.00,0.0032
1538.00,0.0031
1537.00,0.0030
1536.00,0.0029
1535.00,0.0028
1534.00,0.0027
1533.00,0.0025
1532.00,0.0024
1531.00,0.0023
1530.00,0.0023
1529.00,0.0022
1528.00,0.0021
1527.00,0.0020
1526.00,0.0019
1525.00,0.0019
1524.00,0.0019
1523.00,0.0019
1522.00,0.0019
1521.00,0.0018
1520.00,0.0019
1519.00,0.0019
1518.00,0.0020
1517.00,0.0020
1516.00,0.0020
1515.00,0.0021
1514.00,0.0021
1513.00,0.0022
1512.00,0.0023
1511.00,0.0024
1510.00,0.0025
1509.00,0.0025
1508.00,0.0026
1507.00,0.0029
1506.00,0.0034
1505.00,0.0040
1504.00,0.0046
1503.00,0.0052
1502.00,0.0061
1501.00,0.0073
1500.00,0.0093
1499.00,0.0123
1498.00,0.0172
1497.00,0.0244
1496.00,0.0331
1495.00,0.0412
1494.00,0.0466
1493.00,0.0486
1492.00,0.0471
1491.00,0.0422
1490.00,0.0351
1489.00,0.0281
1488.00,0.0226
1487.00,0.0185
1486.00,0.0154
1485.00,0.0130
1484.00,0.0112
1483.00,0.0097
1482.00,0.0085
1481.00,0.0076
1480.00,0.0070
1479.00,0.0065
1478.00,0.0061
1477.00,0.0058
1476.00,0.0056
1475.00,0.0055
1474.00,0.0054
1473.00,0.0054
1472.00,0.0055
1471.00,0.0057
1470.00,0.0058
1469.00,0.0059
1468.00,0.0060
1467.00,0.0062
1466.00,0.0064
1465.00,0.0067
1464.00,0.0072
1463.00,0.0077
1462.00,0.0083
1461.00,0.0090
1460.00,0.0101
1459.00,0.0121
1458.00,0.0165
1457.00,0.0240
1456.00,0.0328
1455.00,0.0401
1454.00,0.0454
1453.00,0.0488
1452.00,0.0500
1451.00,0.0488
1450.00,0.0459
1449.00,0.0424
1448.00,0.0389
1447.00,0.0359
1446.00,0.0333
1445.00,0.0310
1444.00,0.0287
1443.00,0.0265
1442.00,0.0244
1441.00,0.0226
1440.00,0.0209
1439.00,0.0194
1438.00,0.0178
1437.00,0.0162
1436.00,0.0147
1435.00,0.0133
1434.00,0.0122
1433.00,0.0113
1432.00,0.0103
1431.00,0.0095
1430.00,0.0088
1429.00,0.0081
1428.00,0.0077
1427.00,0.0073
1426.00,0.0070
1425.00,0.0067
1424.00,0.0064
1423.00,0.0062
1422.00,0.0060
1421.00,0.0059
1420.00,0.0057
1419.00,0.0055
1418.00,0.0054
1417.00,0.0053
1416.00,0.0052
1415.00,0.0051
1414.00,0.0051
1413.00,0.0050
1412.00,0.0050
1411.00,0.0049
1410.00,0.0049
1409.00,0.0049
1408.00,0.0048
1407.00,0.0048
1406.00,0.0047
1405.00,0.0047
1404.00,0.0047
1403.00,0.0047
1402.00,0.0047
1401.00,0.0047
1400.00,0.0048
1399.00,0.0048
1398.00,0.0049
1397.00,0.0050
1396.00,0.0051
1395.00,0.0052
1394.00,0.0054
1393.00,0.0057
1392.00,0.0060
1391.00,0.0063
1390.00,0.0066
1389.00,0.0069
1388.00,0.0072
1387.00,0.0076
1386.00,0.0080
1385.00,0.0084
1384.00,0.0088
1383.00,0.0091
1382.00,0.0094
1381.00,0.0097
1380.00,0.0101
1379.00,0.0104
1378.00,0.0107
1377.00,0.0110
1376.00,0.0113
1375.00,0.0115
1374.00,0.0117
1373.00,0.0118
1372.00,0.0118
1371.00,0.0118
1370.00,0.0118
1369.00,0.0117
1368.00,0.0116
1367.00,0.0116
1366.00,0.0115
1365.00,0.0114
1364.00,0.0112
1363.00,0.0111
1362.00,0.0110
1361.00,0.0109
1360.00,0.0108
1359.00,0.0106
1358.00,0.0105
1357.00,0.0104
1356.00,0.0102
1355.00,0.0101
1354.00,0.0100
1353.00,0.0100
1352.00,0.0099
1351.00,0.0099
1350.00,0.0098
1349.00,0.0098
1348.00,0.0097
1347.00,0.0096
1346.00,0.0095
1345.00,0.0094
1344.00,0.0092
1343.00,0.0090
1342.00,0.0088
1341.00,0.0087
1340.00,0.0085
1339.00,0.0085
1338.00,0.0085
1337.00,0.0085
1336.00,0.0087
1335.00,0.0088
1334.00,0.0090
1333.00,0.0093
1332.00,0.0095
1331.00,0.0096
1330.00,0.0098
1329.00,0.0099
1328.00,0.0099
1327.00,0.0098
1326.00,0.0097
1325.00,0.0096
1324.00,0.0095
1323.00,0.0094
1322.00,0.0093
1321.00,0.0092
1320.00,0.0092
1319.00,0.0092
1318.00,0.0092
1317.00,0.0093
1316.00,0.0094
1315.00,0.0095
1314.00,0.0095
1313.00,0.0096
1312.00,0.0096
1311.00,0.0095
1310.00,0.0095
1309.00,0.0093
1308.00,0.0092
1307.00,0.0091
1306.00,0.0089
1305.00,0.0088
1304.00,0.0086
1303.00,0.0085
1302.00,0.0084
1301.00,0.0083
1300.00,0.0082
1299.00,0.0081
1298.00,0.0081
1297.00,0.0081
1296.00,0.0081
1295.00,0.0081
1294.00,0.0080
1293.00,0.0080
1292.00,0.0080
1291.00,0.0079
1290.00,0.0078
1289.00,0.0077
1288.00,0.0076
1287.00,0.0075
1286.00,0.0074
1285.00,0.0074
1284.00,0.0073
1283.00,0.0073
1282.00,0.0072
1281.00,0.0071
1280.00,0.0070
1279.00,0.0069
1278.00,0.0068
1277.00,0.0067
1276.00,0.0066
1275.00,0.0065
1274.00,0.0063
1273.00,0.0062
1272.00,0.0060
1271.00,0.0059
1270.00,0.0058
1269.00,0.0058
1268.00,0.0057
1267.00,0.0057
1266.00,0.0056
1265.00,0.0056
1264.00,0.0055
1263.00,0.0055
1262.00,0.0055
1261.00,0.0055
1260.00,0.0054
1259.00,0.0054
1258.00,0.0054
1257.00,0.0054
1256.00,0.0054
1255.00,0.0054
1254.00,0.0054
1253.00,0.0054
1252.00,0.0054
1251.00,0.0054
1250.00,0.0054
1249.00,0.0054
1248.00,0.0054
1247.00,0.0054
1246.00,0.0054
1245.00,0.0054
1244.00,0.0054
1243.00,0.0054
1242.00,0.0054
1241.00,0.0054
1240.00,0.0053
1239.00,0.0053
1238.00,0.0053
1237.00,0.0053
1236.00,0.0053
1235.00,0.0053
1234.00,0.0053
1233.00,0.0053
1232.00,0.0053
1231.00,0.0053
1230.00,0.0053
1229.00,0.0053
1228.00,0.0053
1227.00,0.0053
1226.00,0.0053
1225.00,0.0053
1224.00,0.0053
1223.00,0.0053
1222.00,0.0053
1221.00,0.0053
1220.00,0.0053
1219.00,0.0053
1218.00,0.0054
1217.00,0.0054
1216.00,0.0054
1215.00,0.0054
1214.00,0.0055
1213.00,0.0056
1212.00,0.0057
1211.00,0.0058
1210.00,0.0059
1209.00,0.0060
1208.00,0.0061
1207.00,0.0062
1206.00,0.0064
1205.00,0.0066
1204.00,0.0067
1203.00,0.0069
1202.00,0.0071
1201.00,0.0073
1200.00,0.0074
1199.00,0.0076
1198.00,0.0077
1197.00,0.0077
1196.00,0.0078
1195.00,0.0078
1194.00,0.0078
1193.00,0.0079
1192.00,0.0079
1191.00,0.0079
1190.00,0.0080
1189.00,0.0082
1188.00,0.0084
1187.00,0.0087
1186.00,0.0091
1185.00,0.0096
1184.00,0.0101
1183.00,0.0105
1182.00,0.0108
1181.00,0.0108
1180.00,0.0105
1179.00,0.0100
1178.00,0.0093
1177.00,0.0087
1176.00,0.0080
1175.00,0.0075
1174.00,0.0071
1173.00,0.0069
1172.00,0.0067
1171.00,0.0065
1170.00,0.0065
1169.00,0.0064
1168.00,0.0064
1167.00,0.0064
1166.00,0.0064
1165.00,0.0065
1164.00,0.0067
1163.00,0.0069
1162.00,0.0072
1161.00,0.0076
1160.00,0.0081
1159.00,0.0087
1158.00,0.0094
1157.00,0.0100
1156.00,0.0104
1155.00,0.0107
1154.00,0.0106
1153.00,0.0102
1152.00,0.0095
1151.00,0.0088
1150.00,0.0079
1149.00,0.0072
1148.00,0.0066
1147.00,0.0062
1146.00,0.0059
1145.00,0.0056
1144.00,0.0054
1143.00,0.0053
1142.00,0.0051
1141.00,0.0049
1140.00,0.0048
1139.00,0.0047
1138.00,0.0046
1137.00,0.0046
1136.00,0.0045
1135.00,0.0045
1134.00,0.0045
1133.00,0.0045
1132.00,0.0045
1131.00,0.0045
1130.00,0.0045
1129.00,0.0046
1128.00,0.0046
1127.00,0.0045
1126.00,0.0045
1125.00,0.0046
1124.00,0.0047
1123.00,0.0048
1122.00,0.0049
1121.00,0.0050
1120.00,0.0051
1119.00,0.0053
1118.00,0.0054
1117.00,0.0056
1116.00,0.0058
1115.00,0.0059
1114.00,0.0060
1113.00,0.0060
1112.00,0.0061
1111.00,0.0061
1110.00,0.0060
1109.00,0.0060
1108.00,0.0060
1107.00,0.0060
1106.00,0.0060
1105.00,0.0060
1104.00,0.0060
1103.00,0.0060
1102.00,0.0061
1101.00,0.0061
1100.00,0.0062
1099.00,0.0063
1098.00,0.0064
1097.00,0.0065
1096.00,0.0065
1095.00,0.0066
1094.00,0.0067
1093.00,0.0068
1092.00,0.0069
1091.00,0.0070
1090.00,0.0072
1089.00,0.0074
1088.00,0.0076
1087.00,0.0077
1086.00,0.0079
1085.00,0.0082
1084.00,0.0084
1083.00,0.0087
1082.00,0.0090
1081.00,0.0094
1080.00,0.0097
1079.00,0.0100
1078.00,0.0104
1077.00,0.0108
1076.00,0.0112
1075.00,0.0117
1074.00,0.0122
1073.00,0.0127
1072.00,0.0132
1071.00,0.0136
1070.00,0.0138
1069.00,0.0139
1068.00,0.0139
1067.00,0.0137
1066.00,0.0133
1065.00,0.0129
1064.00,0.0124
1063.00,0.0119
1062.00,0.0114
1061.00,0.0109
1060.00,0.0105
1059.00,0.0101
1058.00,0.0097
1057.00,0.0094
1056.00,0.0091
1055.00,0.0089
1054.00,0.0087
1053.00,0.0085
1052.00,0.0083
1051.00,0.0081
1050.00,0.0079
1049.00,0.0077
1048.00,0.0076
1047.00,0.0075
1046.00,0.0074
1045.00,0.0073
1044.00,0.0073
1043.00,0.0073
1042.00,0.0073
1041.00,0.0075
1040.00,0.0077
1039.00,0.0082
1038.00,0.0089
1037.00,0.0099
1036.00,0.0112
1035.00,0.0129
1034.00,0.0149
1033.00,0.0170
1032.00,0.0192
1031.00,0.0210
1030.00,0.0225
1029.00,0.0234
1028.00,0.0236
1027.00,0.0230
1026.00,0.0219
1025.00,0.0204
1024.00,0.0188
1023.00,0.0174
1022.00,0.0161
1021.00,0.0151
1020.00,0.0142
1019.00,0.0135
1018.00,0.0128
1017.00,0.0123
1016.00,0.0118
1015.00,0.0113
1014.00,0.0109
1013.00,0.0106
1012.00,0.0103
1011.00,0.0101
1010.00,0.0100
1009.00,0.0099
1008.00,0.0099
1007.00,0.0100
1006.00,0.0102
1005.00,0.0104
1004.00,0.0106
1003.00,0.0106
1002.00,0.0103
1001.00,0.0097
1000.00,0.0092
999.00,0.0086
998.00,0.0081
997.00,0.0078
996.00,0.0076
995.00,0.0075
994.00,0.0075
993.00,0.0075
992.00,0.0075
991.00,0.0075
990.00,0.0076
989.00,0.0077
988.00,0.0079
987.00,0.0081
986.00,0.0084
985.00,0.0086
984.00,0.0088
983.00,0.0090
982.00,0.0092
981.00,0.0094
980.00,0.0094
979.00,0.0093
978.00,0.0091
977.00,0.0089
976.00,0.0088
975.00,0.0086
974.00,0.0085
973.00,0.0085
972.00,0.0085
971.00,0.0087
970.00,0.0089
969.00,0.0092
968.00,0.0095
967.00,0.0098
966.00,0.0100
965.00,0.0101
964.00,0.0100
963.00,0.0099
962.00,0.0097
961.00,0.0094
960.00,0.0090
959.00,0.0086
958.00,0.0082
957.00,0.0079
956.00,0.0077
955.00,0.0076
954.00,0.0075
953.00,0.0075
952.00,0.0074
951.00,0.0074
950.00,0.0075
949.00,0.0076
948.00,0.0077
947.00,0.0078
946.00,0.0080
945.00,0.0080
944.00,0.0080
943.00,0.0080
942.00,0.0079
941.00,0.0078
940.00,0.0077
939.00,0.0075
938.00,0.0073
937.00,0.0070
936.00,0.0068
935.00,0.0065
934.00,0.0063
933.00,0.0061
932.00,0.0059
931.00,0.0058
930.00,0.0058
929.00,0.0057
928.00,0.0057
927.00,0.0058
926.00,0.0058
925.00,0.0059
924.00,0.0060
923.00,0.0061
922.00,0.0062
921.00,0.0064
920.00,0.0067
919.00,0.0070
918.00,0.0074
917.00,0.0079
916.00,0.0085
915.00,0.0093
914.00,0.0102
913.00,0.0111
912.00,0.0121
911.00,0.0131
910.00,0.0141
909.00,0.0149
908.00,0.0156
907.00,0.0160
906.00,0.0160
905.00,0.0157
904.00,0.0151
903.00,0.0143
902.00,0.0132
901.00,0.0121
900.00,0.0109
899.00,0.0098
898.00,0.0089
897.00,0.0081
896.00,0.0075
895.00,0.0071
894.00,0.0067
893.00,0.0064
892.00,0.0061
891.00,0.0059
890.00,0.0057
889.00,0.0056
888.00,0.0054
887.00,0.0052
886.00,0.0051
885.00,0.0050
884.00,0.0049
883.00,0.0048
882.00,0.0047
881.00,0.0047
880.00,0.0046
879.00,0.0046
878.00,0.0045
877.00,0.0045
876.00,0.0044
875.00,0.0044
874.00,0.0043
873.00,0.0043
872.00,0.0042
871.00,0.0042
870.00,0.0042
869.00,0.0041
868.00,0.0041
867.00,0.0041
866.00,0.0041
865.00,0.0041
864.00,0.0041
863.00,0.0041
862.00,0.0041
861.00,0.0041
860.00,0.0041
859.00,0.0041
858.00,0.0042
857.00,0.0042
856.00,0.0043
855.00,0.0044
854.00,0.0046
853.00,0.0047
852.00,0.0050
851.00,0.0053
850.00,0.0058
849.00,0.0063
848.00,0.0068
847.00,0.0073
846.00,0.0077
845.00,0.0081
844.00,0.0084
843.00,0.0086
842.00,0.0087
841.00,0.0087
840.00,0.0085
839.00,0.0082
838.00,0.0078
837.00,0.0073
836.00,0.0067
835.00,0.0061
834.00,0.0056
833.00,0.0051
832.00,0.0047
831.00,0.0045
830.00,0.0043
829.00,0.0042
828.00,0.0041
827.00,0.0040
826.00,0.0039
825.00,0.0039
824.00,0.0038
823.00,0.0038
822.00,0.0038
821.00,0.0038
820.00,0.0039
819.00,0.0039
818.00,0.0040
817.00,0.0040
816.00,0.0040
815.00,0.0041
814.00,0.0041
813.00,0.0041
812.00,0.0042
811.00,0.0042
810.00,0.0042
809.00,0.0042
808.00,0.0042
807.00,0.0042
806.00,0.0042
805.00,0.0043
804.00,0.0044
803.00,0.0045
802.00,0.0046
801.00,0.0048
800.00,0.0049
799.00,0.0051
798.00,0.0053
797.00,0.0055
796.00,0.0057
795.00,0.0060
794.00,0.0063
793.00,0.0066
792.00,0.0070
791.00,0.0075
790.00,0.0080
789.00,0.0085
788.00,0.0090
787.00,0.0094
786.00,0.0100
785.00,0.0106
784.00,0.0112
783.00,0.0120
782.00,0.0128
781.00,0.0137
780.00,0.0149
779.00,0.0162
778.00,0.0177
777.00,0.0194
776.00,0.0211
775.00,0.0230
774.00,0.0251
773.00,0.0273
772.00,0.0297
771.00,0.0322
770.00,0.0349
769.00,0.0376
768.00,0.0402
767.00,0.0428
766.00,0.0453
765.00,0.0479
764.00,0.0505
763.00,0.0531
762.00,0.0557
761.00,0.0582
760.00,0.0607
759.00,0.0630
758.00,0.0649
757.00,0.0665
756.00,0.0675
755.00,0.0681
754.00,0.0682
753.00,0.0680
752.00,0.0678
751.00,0.0676
750.00,0.0674
749.00,0.0673
748.00,0.0668
747.00,0.0658
746.00,0.0640
745.00,0.0614
744.00,0.0579
743.00,0.0539
742.00,0.0496
741.00,0.0453
740.00,0.0413
739.00,0.0374
738.00,0.0339
737.00,0.0305
736.00,0.0274
735.00,0.0243
734.00,0.0213
733.00,0.0185
732.00,0.0161
731.00,0.0140
730.00,0.0124
729.00,0.0111
728.00,0.0103
727.00,0.0096
726.00,0.0092
725.00,0.0088
724.00,0.0085
723.00,0.0083
722.00,0.0082
721.00,0.0082
720.00,0.0083
719.00,0.0085
718.00,0.0089
717.00,0.0094
716.00,0.0100
715.00,0.0108
714.00,0.0120
713.00,0.0138
712.00,0.0163
711.00,0.0197
710.00,0.0242
709.00,0.0299
708.00,0.0368
707.00,0.0450
706.00,0.0544
705.00,0.0648
704.00,0.0762
703.00,0.0884
702.00,0.1014
701.00,0.1149
700.00,0.1286
699.00,0.1421
698.00,0.1550
697.00,0.1663
696.00,0.1743
695.00,0.1772
694.00,0.1734
693.00,0.1631
692.00,0.1478
691.00,0.1304
690.00,0.1135
689.00,0.0987
688.00,0.0864
687.00,0.0765
686.00,0.0684
685.00,0.0619
684.00,0.0565
683.00,0.0520
682.00,0.0482
681.00,0.0450
680.00,0.0423
679.00,0.0400
678.00,0.0379
677.00,0.0362
676.00,0.0347
675.00,0.0334
674.00,0.0322
673.00,0.0311
672.00,0.0302
671.00,0.0293
670.00,0.0286
669.00,0.0279
668.00,0.0271
667.00,0.0261
666.00,0.0250
665.00,0.0238
664.00,0.0229
663.00,0.0221
662.00,0.0214
661.00,0.0206
660.00,0.0197
659.00,0.0189
658.00,0.0182
657.00,0.0176
656.00,0.0170
655.00,0.0166
654.00,0.0161
653.00,0.0157
652.00,0.0153
651.00,0.0149
650.00,0.0145
649.00,0.0141
648.00,0.0138
647.00,0.0135
646.00,0.0133
645.00,0.0130
644.00,0.0127
643.00,0.0125
642.00,0.0124
641.00,0.0124
640.00,0.0124
639.00,0.0126
638.00,0.0128
637.00,0.0131
636.00,0.0134
635.00,0.0136
634.00,0.0139
633.00,0.0142
632.00,0.0145
631.00,0.0147
630.00,0.0150
629.00,0.0151
628.00,0.0152
627.00,0.0152
626.00,0.0153
625.00,0.0154
624.00,0.0157
623.00,0.0161
622.00,0.0164
621.00,0.0167
620.00,0.0166
619.00,0.0162
618.00,0.0157
617.00,0.0151
616.00,0.0146
615.00,0.0142
614.00,0.0139
613.00,0.0138
612.00,0.0138
611.00,0.0137
610.00,0.0136
609.00,0.0135
608.00,0.0134
607.00,0.0133
606.00,0.0131
605.00,0.0130
604.00,0.0130
603.00,0.0131
602.00,0.0132
601.00,0.0133
600.00,0.0135
599.00,0.0137
598.00,0.0139
597.00,0.0141
596.00,0.0143
595.00,0.0144
594.00,0.0145
593.00,0.0146
592.00,0.0147
591.00,0.0150
590.00,0.0152
589.00,0.0155
588.00,0.0157
587.00,0.0159
586.00,0.0161
585.00,0.0163
584.00,0.0166
583.00,0.0169
582.00,0.0173
581.00,0.0178
580.00,0.0184
579.00,0.0191
578.00,0.0199
577.00,0.0206
576.00,0.0213
575.00,0.0221
574.00,0.0230
573.00,0.0240
572.00,0.0249
571.00,0.0257
570.00,0.0264
569.00,0.0271
568.00,0.0280
567.00,0.0289
566.00,0.0298
565.00,0.0308
564.00,0.0317
563.00,0.0327
562.00,0.0336
561.00,0.0343
560.00,0.0351
559.00,0.0359
558.00,0.0368
557.00,0.0378
556.00,0.0387
555.00,0.0396
554.00,0.0406
553.00,0.0416
552.00,0.0428
551.00,0.0441
550.00,0.0455
549.00,0.0470
548.00,0.0487
547.00,0.0504
546.00,0.0522
545.00,0.0541
544.00,0.0560
543.00,0.0580
542.00,0.0598
541.00,0.0615
540.00,0.0630
539.00,0.0638
538.00,0.0638
537.00,0.0631
536.00,0.0618
535.00,0.0599
534.00,0.0575
533.00,0.0548
532.00,0.0520
531.00,0.0491
530.00,0.0461
529.00,0.0433
528.00,0.0406
527.00,0.0380
526.00,0.0356
525.00,0.0334
524.00,0.0316
523.00,0.0300
522.00,0.0285
521.00,0.0272
520.00,0.0260
519.00,0.0251
518.00,0.0243
517.00,0.0235
516.00,0.0229
515.00,0.0223
514.00,0.0217
513.00,0.0213
512.00,0.0208
511.00,0.0203
510.00,0.0197
509.00,0.0190
508.00,0.0184
507.00,0.0178
506.00,0.0172
505.00,0.0167
504.00,0.0162
503.00,0.0157
502.00,0.0152
501.00,0.0148
500.00,0.0145
499.00,0.0142
498.00,0.0139
497.00,0.0136
496.00,0.0133
495.00,0.0132
494.00,0.0132
493.00,0.0131
492.00,0.0130
491.00,0.0128
490.00,0.0126
489.00,0.0125
488.00,0.0124
487.00,0.0122
486.00,0.0120
485.00,0.0117
484.00,0.0114
483.00,0.0113
482.00,0.0114
481.00,0.0116
480.00,0.0117
479.00,0.0118
478.00,0.0118
477.00,0.0117
476.00,0.0116
475.00,0.0116
474.00,0.0116
473.00,0.0114
472.00,0.0110
471.00,0.0107
470.00,0.0105
469.00,0.0104
468.00,0.0103
467.00,0.0101
466.00,0.0098
465.00,0.0097
464.00,0.0096
463.00,0.0096
462.00,0.0096
461.00,0.0096
460.00,0.0095
459.00,0.0095
458.00,0.0095
457.00,0.0096
456.00,0.0096
455.00,0.0095
454.00,0.0095
453.00,0.0094
452.00,0.0094
451.00,0.0095
450.00,0.0095
449.00,0.0095
448.00,0.0093
447.00,0.0090
446.00,0.0086
445.00,0.0083
444.00,0.0082
443.00,0.0082
442.00,0.0085
441.00,0.0087
440.00,0.0087
439.00,0.0087
438.00,0.0088
437.00,0.0090
436.00,0.0092
435.00,0.0093
434.00,0.0093
433.00,0.0093
432.00,0.0093
431.00,0.0093
430.00,0.0093
429.00,0.0093
428.00,0.0090
427.00,0.0088
426.00,0.0087
425.00,0.0088
424.00,0.0089
423.00,0.0090
422.00,0.0091
421.00,0.0094
420.00,0.0100
419.00,0.0103
418.00,0.0102
417.00,0.0100
416.00,0.0098
415.00,0.0097
414.00,0.0096
413.00,0.0094
412.00,0.0091
411.00,0.0089
410.00,0.0089
409.00,0.0091
408.00,0.0094
407.00,0.0097
406.00,0.0103
405.00,0.0111
404.00,0.0117
403.00,0.0117
402.00,0.0110
401.00,0.0101
400.00,0.0093
