Created as New Dataset,Sample 934 By YargerLab Date Monday, July 28 2025
cm-1,A
4000.00,0.0019
3999.00,0.0019
3998.00,0.0018
3997.00,0.0018
3996.00,0.0019
3995.00,0.0019
3994.00,0.0019
3993.00,0.0019
3992.00,0.0019
3991.00,0.0019
3990.00,0.0018
3989.00,0.0018
3988.00,0.0018
3987.00,0.0018
3986.00,0.0018
3985.00,0.0018
3984.00,0.0018
3983.00,0.0018
3982.00,0.0018
3981.00,0.0018
3980.00,0.0019
3979.00,0.0018
3978.00,0.0018
3977.00,0.0018
3976.00,0.0018
3975.00,0.0019
3974.00,0.0019
3973.00,0.0019
3972.00,0.0018
3971.00,0.0018
3970.00,0.0018
3969.00,0.0018
3968.00,0.0018
3967.00,0.0018
3966.00,0.0018
3965.00,0.0018
3964.00,0.0018
3963.00,0.0018
3962.00,0.0018
3961.00,0.0018
3960.00,0.0018
3959.00,0.0019
3958.00,0.0019
3957.00,0.0019
3956.00,0.0018
3955.00,0.0018
3954.00,0.0018
3953.00,0.0018
3952.00,0.0018
3951.00,0.0018
3950.00,0.0017
3949.00,0.0017
3948.00,0.0017
3947.00,0.0017
3946.00,0.0017
3945.00,0.0017
3944.00,0.0017
3943.00,0.0018
3942.00,0.0018
3941.00,0.0018
3940.00,0.0018
3939.00,0.0018
3938.00,0.0018
3937.00,0.0018
3936.00,0.0018
3935.00,0.0018
3934.00,0.0017
3933.00,0.0017
3932.00,0.0017
3931.00,0.0018
3930.00,0.0018
3929.00,0.0018
3928.00,0.0017
3927.00,0.0017
3926.00,0.0017
3925.00,0.0017
3924.00,0.0018
3923.00,0.0018
3922.00,0.0018
3921.00,0.0017
3920.00,0.0017
3919.00,0.0017
3918.00,0.0017
3917.00,0.0017
3916.00,0.0017
3915.00,0.0017
3914.00,0.0017
3913.00,0.0018
3912.00,0.0018
3911.00,0.0018
3910.00,0.0018
3909.00,0.0018
3908.00,0.0018
3907.00,0.0018
3906.00,0.0018
3905.00,0.0018
3904.00,0.0017
3903.00,0.0017
3902.00,0.0016
3901.00,0.0016
3900.00,0.0016
3899.00,0.0016
3898.00,0.0016
3897.00,0.0016
3896.00,0.0017
3895.00,0.0017
3894.00,0.0017
3893.00,0.0017
3892.00,0.0017
3891.00,0.0017
3890.00,0.0018
3889.00,0.0017
3888.00,0.0017
3887.00,0.0016
3886.00,0.0016
3885.00,0.0016
3884.00,0.0016
3883.00,0.0016
3882.00,0.0016
3881.00,0.0016
3880.00,0.0016
3879.00,0.0016
3878.00,0.0016
3877.00,0.0016
3876.00,0.0016
3875.00,0.0016
3874.00,0.0016
3873.00,0.0017
3872.00,0.0016
3871.00,0.0016
3870.00,0.0016
3869.00,0.0016
3868.00,0.0016
3867.00,0.0015
3866.00,0.0015
3865.00,0.0015
3864.00,0.0015
3863.00,0.0016
3862.00,0.0016
3861.00,0.0015
3860.00,0.0016
3859.00,0.0016
3858.00,0.0017
3857.00,0.0018
3856.00,0.0019
3855.00,0.0019
3854.00,0.0019
3853.00,0.0018
3852.00,0.0017
3851.00,0.0016
3850.00,0.0015
3849.00,0.0015
3848.00,0.0015
3847.00,0.0016
3846.00,0.0016
3845.00,0.0016
3844.00,0.0016
3843.00,0.0016
3842.00,0.0016
3841.00,0.0016
3840.00,0.0016
3839.00,0.0016
3838.00,0.0016
3837.00,0.0016
3836.00,0.0016
3835.00,0.0016
3834.00,0.0016
3833.00,0.0016
3832.00,0.0016
3831.00,0.0016
3830.00,0.0016
3829.00,0.0016
3828.00,0.0016
3827.00,0.0016
3826.00,0.0017
3825.00,0.0017
3824.00,0.0017
3823.00,0.0016
3822.00,0.0016
3821.00,0.0017
3820.00,0.0017
3819.00,0.0017
3818.00,0.0017
3817.00,0.0016
3816.00,0.0017
3815.00,0.0017
3814.00,0.0017
3813.00,0.0017
3812.00,0.0017
3811.00,0.0017
3810.00,0.0017
3809.00,0.0018
3808.00,0.0018
3807.00,0.0018
3806.00,0.0018
3805.00,0.0017
3804.00,0.0017
3803.00,0.0016
3802.00,0.0016
3801.00,0.0017
3800.00,0.0017
3799.00,0.0017
3798.00,0.0017
3797.00,0.0016
3796.00,0.0017
3795.00,0.0017
3794.00,0.0017
3793.00,0.0017
3792.00,0.0018
3791.00,0.0018
3790.00,0.0018
3789.00,0.0018
3788.00,0.0018
3787.00,0.0018
3786.00,0.0018
3785.00,0.0018
3784.00,0.0018
3783.00,0.0018
3782.00,0.0018
3781.00,0.0017
3780.00,0.0017
3779.00,0.0017
3778.00,0.0017
3777.00,0.0017
3776.00,0.0017
3775.00,0.0017
3774.00,0.0018
3773.00,0.0018
3772.00,0.0017
3771.00,0.0017
3770.00,0.0017
3769.00,0.0017
3768.00,0.0017
3767.00,0.0017
3766.00,0.0017
3765.00,0.0017
3764.00,0.0017
3763.00,0.0017
3762.00,0.0017
3761.00,0.0017
3760.00,0.0017
3759.00,0.0017
3758.00,0.0017
3757.00,0.0016
3756.00,0.0016
3755.00,0.0016
3754.00,0.0016
3753.00,0.0016
3752.00,0.0015
3751.00,0.0015
3750.00,0.0015
3749.00,0.0014
3748.00,0.0015
3747.00,0.0015
3746.00,0.0014
3745.00,0.0014
3744.00,0.0014
3743.00,0.0015
3742.00,0.0015
3741.00,0.0014
3740.00,0.0014
3739.00,0.0014
3738.00,0.0014
3737.00,0.0014
3736.00,0.0014
3735.00,0.0014
3734.00,0.0014
3733.00,0.0014
3732.00,0.0014
3731.00,0.0014
3730.00,0.0015
3729.00,0.0015
3728.00,0.0015
3727.00,0.0015
3726.00,0.0015
3725.00,0.0016
3724.00,0.0016
3723.00,0.0015
3722.00,0.0015
3721.00,0.0015
3720.00,0.0015
3719.00,0.0016
3718.00,0.0016
3717.00,0.0016
3716.00,0.0016
3715.00,0.0016
3714.00,0.0015
3713.00,0.0015
3712.00,0.0015
3711.00,0.0016
3710.00,0.0016
3709.00,0.0016
3708.00,0.0016
3707.00,0.0016
3706.00,0.0016
3705.00,0.0016
3704.00,0.0016
3703.00,0.0016
3702.00,0.0016
3701.00,0.0016
3700.00,0.0016
3699.00,0.0016
3698.00,0.0016
3697.00,0.0016
3696.00,0.0016
3695.00,0.0016
3694.00,0.0016
3693.00,0.0016
3692.00,0.0015
3691.00,0.0015
3690.00,0.0015
3689.00,0.0015
3688.00,0.0014
3687.00,0.0014
3686.00,0.0014
3685.00,0.0014
3684.00,0.0015
3683.00,0.0015
3682.00,0.0015
3681.00,0.0015
3680.00,0.0016
3679.00,0.0016
3678.00,0.0016
3677.00,0.0015
3676.00,0.0015
3675.00,0.0015
3674.00,0.0015
3673.00,0.0014
3672.00,0.0013
3671.00,0.0013
3670.00,0.0014
3669.00,0.0014
3668.00,0.0015
3667.00,0.0015
3666.00,0.0015
3665.00,0.0014
3664.00,0.0014
3663.00,0.0014
3662.00,0.0015
3661.00,0.0015
3660.00,0.0015
3659.00,0.0015
3658.00,0.0015
3657.00,0.0015
3656.00,0.0015
3655.00,0.0015
3654.00,0.0015
3653.00,0.0015
3652.00,0.0014
3651.00,0.0014
3650.00,0.0014
3649.00,0.0014
3648.00,0.0014
3647.00,0.0014
3646.00,0.0014
3645.00,0.0015
3644.00,0.0015
3643.00,0.0015
3642.00,0.0016
3641.00,0.0016
3640.00,0.0016
3639.00,0.0016
3638.00,0.0016
3637.00,0.0015
3636.00,0.0015
3635.00,0.0015
3634.00,0.0015
3633.00,0.0015
3632.00,0.0015
3631.00,0.0015
3630.00,0.0015
3629.00,0.0015
3628.00,0.0015
3627.00,0.0015
3626.00,0.0014
3625.00,0.0014
3624.00,0.0015
3623.00,0.0015
3622.00,0.0016
3621.00,0.0016
3620.00,0.0016
3619.00,0.0016
3618.00,0.0016
3617.00,0.0015
3616.00,0.0015
3615.00,0.0015
3614.00,0.0015
3613.00,0.0014
3612.00,0.0014
3611.00,0.0014
3610.00,0.0013
3609.00,0.0013
3608.00,0.0014
3607.00,0.0014
3606.00,0.0014
3605.00,0.0015
3604.00,0.0015
3603.00,0.0015
3602.00,0.0015
3601.00,0.0015
3600.00,0.0015
3599.00,0.0015
3598.00,0.0015
3597.00,0.0015
3596.00,0.0015
3595.00,0.0015
3594.00,0.0015
3593.00,0.0015
3592.00,0.0015
3591.00,0.0014
3590.00,0.0014
3589.00,0.0014
3588.00,0.0014
3587.00,0.0014
3586.00,0.0014
3585.00,0.0015
3584.00,0.0015
3583.00,0.0015
3582.00,0.0016
3581.00,0.0016
3580.00,0.0016
3579.00,0.0016
3578.00,0.0016
3577.00,0.0016
3576.00,0.0016
3575.00,0.0016
3574.00,0.0016
3573.00,0.0016
3572.00,0.0016
3571.00,0.0015
3570.00,0.0015
3569.00,0.0015
3568.00,0.0014
3567.00,0.0014
3566.00,0.0014
3565.00,0.0014
3564.00,0.0015
3563.00,0.0015
3562.00,0.0015
3561.00,0.0016
3560.00,0.0016
3559.00,0.0016
3558.00,0.0017
3557.00,0.0017
3556.00,0.0017
3555.00,0.0017
3554.00,0.0017
3553.00,0.0017
3552.00,0.0017
3551.00,0.0017
3550.00,0.0017
3549.00,0.0016
3548.00,0.0016
3547.00,0.0016
3546.00,0.0016
3545.00,0.0017
3544.00,0.0017
3543.00,0.0018
3542.00,0.0018
3541.00,0.0019
3540.00,0.0019
3539.00,0.0019
3538.00,0.0018
3537.00,0.0018
3536.00,0.0018
3535.00,0.0018
3534.00,0.0018
3533.00,0.0018
3532.00,0.0018
3531.00,0.0018
3530.00,0.0018
3529.00,0.0018
3528.00,0.0018
3527.00,0.0018
3526.00,0.0018
3525.00,0.0018
3524.00,0.0019
3523.00,0.0019
3522.00,0.0019
3521.00,0.0019
3520.00,0.0019
3519.00,0.0019
3518.00,0.0019
3517.00,0.0019
3516.00,0.0019
3515.00,0.0019
3514.00,0.0020
3513.00,0.0020
3512.00,0.0020
3511.00,0.0020
3510.00,0.0020
3509.00,0.0020
3508.00,0.0020
3507.00,0.0020
3506.00,0.0020
3505.00,0.0019
3504.00,0.0020
3503.00,0.0020
3502.00,0.0020
3501.00,0.0020
3500.00,0.0020
3499.00,0.0020
3498.00,0.0020
3497.00,0.0020
3496.00,0.0020
3495.00,0.0020
3494.00,0.0020
3493.00,0.0020
3492.00,0.0020
3491.00,0.0020
3490.00,0.0020
3489.00,0.0021
3488.00,0.0021
3487.00,0.0021
3486.00,0.0021
3485.00,0.0021
3484.00,0.0021
3483.00,0.0021
3482.00,0.0021
3481.00,0.0021
3480.00,0.0021
3479.00,0.0021
3478.00,0.0021
3477.00,0.0021
3476.00,0.0021
3475.00,0.0021
3474.00,0.0021
3473.00,0.0021
3472.00,0.0021
3471.00,0.0021
3470.00,0.0021
3469.00,0.0021
3468.00,0.0021
3467.00,0.0021
3466.00,0.0021
3465.00,0.0021
3464.00,0.0021
3463.00,0.0021
3462.00,0.0021
3461.00,0.0021
3460.00,0.0021
3459.00,0.0021
3458.00,0.0021
3457.00,0.0021
3456.00,0.0021
3455.00,0.0022
3454.00,0.0022
3453.00,0.0022
3452.00,0.0022
3451.00,0.0022
3450.00,0.0022
3449.00,0.0022
3448.00,0.0022
3447.00,0.0022
3446.00,0.0022
3445.00,0.0022
3444.00,0.0022
3443.00,0.0022
3442.00,0.0022
3441.00,0.0022
3440.00,0.0022
3439.00,0.0022
3438.00,0.0022
3437.00,0.0021
3436.00,0.0021
3435.00,0.0021
3434.00,0.0021
3433.00,0.0021
3432.00,0.0021
3431.00,0.0021
3430.00,0.0021
3429.00,0.0021
3428.00,0.0021
3427.00,0.0021
3426.00,0.0021
3425.00,0.0021
3424.00,0.0020
3423.00,0.0020
3422.00,0.0020
3421.00,0.0020
3420.00,0.0021
3419.00,0.0021
3418.00,0.0021
3417.00,0.0021
3416.00,0.0021
3415.00,0.0021
3414.00,0.0021
3413.00,0.0021
3412.00,0.0021
3411.00,0.0021
3410.00,0.0021
3409.00,0.0021
3408.00,0.0021
3407.00,0.0021
3406.00,0.0021
3405.00,0.0021
3404.00,0.0020
3403.00,0.0020
3402.00,0.0020
3401.00,0.0020
3400.00,0.0020
3399.00,0.0020
3398.00,0.0020
3397.00,0.0020
3396.00,0.0020
3395.00,0.0020
3394.00,0.0020
3393.00,0.0020
3392.00,0.0020
3391.00,0.0020
3390.00,0.0020
3389.00,0.0020
3388.00,0.0020
3387.00,0.0020
3386.00,0.0020
3385.00,0.0020
3384.00,0.0020
3383.00,0.0020
3382.00,0.0020
3381.00,0.0020
3380.00,0.0020
3379.00,0.0020
3378.00,0.0020
3377.00,0.0020
3376.00,0.0020
3375.00,0.0020
3374.00,0.0020
3373.00,0.0020
3372.00,0.0020
3371.00,0.0020
3370.00,0.0020
3369.00,0.0019
3368.00,0.0019
3367.00,0.0019
3366.00,0.0019
3365.00,0.0019
3364.00,0.0019
3363.00,0.0019
3362.00,0.0019
3361.00,0.0019
3360.00,0.0020
3359.00,0.0020
3358.00,0.0019
3357.00,0.0019
3356.00,0.0019
3355.00,0.0019
3354.00,0.0020
3353.00,0.0020
3352.00,0.0020
3351.00,0.0020
3350.00,0.0019
3349.00,0.0019
3348.00,0.0019
3347.00,0.0019
3346.00,0.0019
3345.00,0.0019
3344.00,0.0019
3343.00,0.0019
3342.00,0.0019
3341.00,0.0020
3340.00,0.0019
3339.00,0.0019
3338.00,0.0019
3337.00,0.0019
3336.00,0.0019
3335.00,0.0019
3334.00,0.0019
3333.00,0.0019
3332.00,0.0019
3331.00,0.0019
3330.00,0.0019
3329.00,0.0019
3328.00,0.0020
3327.00,0.0019
3326.00,0.0019
3325.00,0.0019
3324.00,0.0018
3323.00,0.0018
3322.00,0.0018
3321.00,0.0018
3320.00,0.0019
3319.00,0.0019
3318.00,0.0018
3317.00,0.0018
3316.00,0.0019
3315.00,0.0019
3314.00,0.0019
3313.00,0.0018
3312.00,0.0018
3311.00,0.0018
3310.00,0.0017
3309.00,0.0017
3308.00,0.0017
3307.00,0.0018
3306.00,0.0018
3305.00,0.0018
3304.00,0.0018
3303.00,0.0018
3302.00,0.0018
3301.00,0.0018
3300.00,0.0018
3299.00,0.0018
3298.00,0.0018
3297.00,0.0018
3296.00,0.0018
3295.00,0.0018
3294.00,0.0018
3293.00,0.0018
3292.00,0.0018
3291.00,0.0018
3290.00,0.0018
3289.00,0.0018
3288.00,0.0018
3287.00,0.0018
3286.00,0.0018
3285.00,0.0018
3284.00,0.0017
3283.00,0.0017
3282.00,0.0017
3281.00,0.0017
3280.00,0.0017
3279.00,0.0017
3278.00,0.0017
3277.00,0.0017
3276.00,0.0017
3275.00,0.0017
3274.00,0.0017
3273.00,0.0017
3272.00,0.0017
3271.00,0.0017
3270.00,0.0017
3269.00,0.0017
3268.00,0.0017
3267.00,0.0017
3266.00,0.0017
3265.00,0.0017
3264.00,0.0017
3263.00,0.0017
3262.00,0.0017
3261.00,0.0017
3260.00,0.0017
3259.00,0.0017
3258.00,0.0017
3257.00,0.0017
3256.00,0.0017
3255.00,0.0017
3254.00,0.0017
3253.00,0.0017
3252.00,0.0017
3251.00,0.0017
3250.00,0.0017
3249.00,0.0017
3248.00,0.0016
3247.00,0.0016
3246.00,0.0016
3245.00,0.0016
3244.00,0.0016
3243.00,0.0016
3242.00,0.0016
3241.00,0.0017
3240.00,0.0017
3239.00,0.0017
3238.00,0.0016
3237.00,0.0016
3236.00,0.0016
3235.00,0.0016
3234.00,0.0016
3233.00,0.0016
3232.00,0.0016
3231.00,0.0016
3230.00,0.0016
3229.00,0.0016
3228.00,0.0016
3227.00,0.0016
3226.00,0.0016
3225.00,0.0016
3224.00,0.0016
3223.00,0.0016
3222.00,0.0016
3221.00,0.0016
3220.00,0.0016
3219.00,0.0016
3218.00,0.0016
3217.00,0.0016
3216.00,0.0016
3215.00,0.0016
3214.00,0.0016
3213.00,0.0017
3212.00,0.0017
3211.00,0.0017
3210.00,0.0017
3209.00,0.0018
3208.00,0.0018
3207.00,0.0017
3206.00,0.0017
3205.00,0.0018
3204.00,0.0018
3203.00,0.0018
3202.00,0.0018
3201.00,0.0018
3200.00,0.0017
3199.00,0.0017
3198.00,0.0017
3197.00,0.0017
3196.00,0.0017
3195.00,0.0017
3194.00,0.0017
3193.00,0.0017
3192.00,0.0016
3191.00,0.0016
3190.00,0.0016
3189.00,0.0016
3188.00,0.0016
3187.00,0.0016
3186.00,0.0016
3185.00,0.0016
3184.00,0.0016
3183.00,0.0016
3182.00,0.0016
3181.00,0.0016
3180.00,0.0016
3179.00,0.0016
3178.00,0.0016
3177.00,0.0016
3176.00,0.0016
3175.00,0.0016
3174.00,0.0016
3173.00,0.0016
3172.00,0.0017
3171.00,0.0017
3170.00,0.0017
3169.00,0.0018
3168.00,0.0018
3167.00,0.0018
3166.00,0.0018
3165.00,0.0019
3164.00,0.0019
3163.00,0.0019
3162.00,0.0019
3161.00,0.0018
3160.00,0.0018
3159.00,0.0018
3158.00,0.0017
3157.00,0.0017
3156.00,0.0017
3155.00,0.0017
3154.00,0.0017
3153.00,0.0016
3152.00,0.0016
3151.00,0.0017
3150.00,0.0016
3149.00,0.0016
3148.00,0.0016
3147.00,0.0016
3146.00,0.0016
3145.00,0.0016
3144.00,0.0016
3143.00,0.0016
3142.00,0.0016
3141.00,0.0016
3140.00,0.0016
3139.00,0.0016
3138.00,0.0016
3137.00,0.0016
3136.00,0.0016
3135.00,0.0017
3134.00,0.0017
3133.00,0.0017
3132.00,0.0017
3131.00,0.0017
3130.00,0.0017
3129.00,0.0017
3128.00,0.0017
3127.00,0.0017
3126.00,0.0017
3125.00,0.0018
3124.00,0.0018
3123.00,0.0018
3122.00,0.0018
3121.00,0.0019
3120.00,0.0019
3119.00,0.0020
3118.00,0.0021
3117.00,0.0021
3116.00,0.0023
3115.00,0.0024
3114.00,0.0026
3113.00,0.0028
3112.00,0.0030
3111.00,0.0032
3110.00,0.0035
3109.00,0.0038
3108.00,0.0040
3107.00,0.0043
3106.00,0.0045
3105.00,0.0047
3104.00,0.0048
3103.00,0.0048
3102.00,0.0048
3101.00,0.0047
3100.00,0.0047
3099.00,0.0046
3098.00,0.0046
3097.00,0.0046
3096.00,0.0046
3095.00,0.0048
3094.00,0.0050
3093.00,0.0053
3092.00,0.0058
3091.00,0.0064
3090.00,0.0071
3089.00,0.0079
3088.00,0.0087
3087.00,0.0097
3086.00,0.0105
3085.00,0.0113
3084.00,0.0118
3083.00,0.0121
3082.00,0.0121
3081.00,0.0119
3080.00,0.0114
3079.00,0.0108
3078.00,0.0103
3077.00,0.0097
3076.00,0.0093
3075.00,0.0090
3074.00,0.0089
3073.00,0.0089
3072.00,0.0091
3071.00,0.0094
3070.00,0.0098
3069.00,0.0104
3068.00,0.0111
3067.00,0.0119
3066.00,0.0128
3065.00,0.0138
3064.00,0.0148
3063.00,0.0157
3062.00,0.0164
3061.00,0.0168
3060.00,0.0169
3059.00,0.0167
3058.00,0.0162
3057.00,0.0155
3056.00,0.0146
3055.00,0.0136
3054.00,0.0126
3053.00,0.0118
3052.00,0.0110
3051.00,0.0104
3050.00,0.0098
3049.00,0.0093
3048.00,0.0090
3047.00,0.0087
3046.00,0.0086
3045.00,0.0086
3044.00,0.0087
3043.00,0.0089
3042.00,0.0093
3041.00,0.0098
3040.00,0.0104
3039.00,0.0111
3038.00,0.0120
3037.00,0.0130
3036.00,0.0143
3035.00,0.0158
3034.00,0.0175
3033.00,0.0195
3032.00,0.0217
3031.00,0.0241
3030.00,0.0265
3029.00,0.0287
3028.00,0.0306
3027.00,0.0320
3026.00,0.0327
3025.00,0.0325
3024.00,0.0315
3023.00,0.0297
3022.00,0.0273
3021.00,0.0245
3020.00,0.0218
3019.00,0.0191
3018.00,0.0167
3017.00,0.0146
3016.00,0.0129
3015.00,0.0115
3014.00,0.0103
3013.00,0.0095
3012.00,0.0088
3011.00,0.0084
3010.00,0.0081
3009.00,0.0080
3008.00,0.0080
3007.00,0.0081
3006.00,0.0083
3005.00,0.0085
3004.00,0.0088
3003.00,0.0089
3002.00,0.0089
3001.00,0.0088
3000.00,0.0084
2999.00,0.0079
2998.00,0.0073
2997.00,0.0066
2996.00,0.0060
2995.00,0.0054
2994.00,0.0050
2993.00,0.0046
2992.00,0.0043
2991.00,0.0041
2990.00,0.0039
2989.00,0.0038
2988.00,0.0037
2987.00,0.0037
2986.00,0.0036
2985.00,0.0035
2984.00,0.0033
2983.00,0.0031
2982.00,0.0030
2981.00,0.0030
2980.00,0.0030
2979.00,0.0031
2978.00,0.0032
2977.00,0.0033
2976.00,0.0034
2975.00,0.0035
2974.00,0.0036
2973.00,0.0036
2972.00,0.0036
2971.00,0.0037
2970.00,0.0038
2969.00,0.0040
2968.00,0.0041
2967.00,0.0043
2966.00,0.0045
2965.00,0.0047
2964.00,0.0049
2963.00,0.0052
2962.00,0.0054
2961.00,0.0057
2960.00,0.0060
2959.00,0.0063
2958.00,0.0067
2957.00,0.0071
2956.00,0.0075
2955.00,0.0079
2954.00,0.0084
2953.00,0.0089
2952.00,0.0094
2951.00,0.0100
2950.00,0.0107
2949.00,0.0114
2948.00,0.0121
2947.00,0.0129
2946.00,0.0136
2945.00,0.0145
2944.00,0.0154
2943.00,0.0163
2942.00,0.0174
2941.00,0.0184
2940.00,0.0195
2939.00,0.0207
2938.00,0.0219
2937.00,0.0232
2936.00,0.0245
2935.00,0.0258
2934.00,0.0272
2933.00,0.0285
2932.00,0.0299
2931.00,0.0312
2930.00,0.0324
2929.00,0.0335
2928.00,0.0346
2927.00,0.0355
2926.00,0.0362
2925.00,0.0368
2924.00,0.0372
2923.00,0.0375
2922.00,0.0375
2921.00,0.0375
2920.00,0.0372
2919.00,0.0369
2918.00,0.0364
2917.00,0.0359
2916.00,0.0353
2915.00,0.0346
2914.00,0.0338
2913.00,0.0330
2912.00,0.0322
2911.00,0.0314
2910.00,0.0306
2909.00,0.0297
2908.00,0.0287
2907.00,0.0277
2906.00,0.0267
2905.00,0.0257
2904.00,0.0247
2903.00,0.0237
2902.00,0.0227
2901.00,0.0217
2900.00,0.0208
2899.00,0.0198
2898.00,0.0190
2897.00,0.0181
2896.00,0.0174
2895.00,0.0167
2894.00,0.0161
2893.00,0.0155
2892.00,0.0150
2891.00,0.0146
2890.00,0.0141
2889.00,0.0138
2888.00,0.0134
2887.00,0.0131
2886.00,0.0127
2885.00,0.0124
2884.00,0.0121
2883.00,0.0118
2882.00,0.0115
2881.00,0.0112
2880.00,0.0109
2879.00,0.0107
2878.00,0.0104
2877.00,0.0102
2876.00,0.0099
2875.00,0.0097
2874.00,0.0095
2873.00,0.0093
2872.00,0.0092
2871.00,0.0091
2870.00,0.0091
2869.00,0.0091
2868.00,0.0091
2867.00,0.0093
2866.00,0.0095
2865.00,0.0097
2864.00,0.0100
2863.00,0.0103
2862.00,0.0107
2861.00,0.0111
2860.00,0.0116
2859.00,0.0122
2858.00,0.0127
2857.00,0.0133
2856.00,0.0138
2855.00,0.0144
2854.00,0.0149
2853.00,0.0153
2852.00,0.0156
2851.00,0.0159
2850.00,0.0160
2849.00,0.0160
2848.00,0.0159
2847.00,0.0157
2846.00,0.0153
2845.00,0.0148
2844.00,0.0142
2843.00,0.0133
2842.00,0.0124
2841.00,0.0115
2840.00,0.0105
2839.00,0.0096
2838.00,0.0087
2837.00,0.0079
2836.00,0.0072
2835.00,0.0066
2834.00,0.0061
2833.00,0.0057
2832.00,0.0054
2831.00,0.0051
2830.00,0.0048
2829.00,0.0047
2828.00,0.0045
2827.00,0.0044
2826.00,0.0042
2825.00,0.0041
2824.00,0.0041
2823.00,0.0040
2822.00,0.0040
2821.00,0.0039
2820.00,0.0039
2819.00,0.0038
2818.00,0.0038
2817.00,0.0037
2816.00,0.0037
2815.00,0.0037
2814.00,0.0037
2813.00,0.0036
2812.00,0.0036
2811.00,0.0035
2810.00,0.0035
2809.00,0.0035
2808.00,0.0035
2807.00,0.0035
2806.00,0.0034
2805.00,0.0034
2804.00,0.0034
2803.00,0.0033
2802.00,0.0033
2801.00,0.0033
2800.00,0.0033
2799.00,0.0032
2798.00,0.0032
2797.00,0.0032
2796.00,0.0031
2795.00,0.0031
2794.00,0.0031
2793.00,0.0030
2792.00,0.0030
2791.00,0.0030
2790.00,0.0030
2789.00,0.0030
2788.00,0.0030
2787.00,0.0030
2786.00,0.0030
2785.00,0.0030
2784.00,0.0030
2783.00,0.0030
2782.00,0.0030
2781.00,0.0030
2780.00,0.0029
2779.00,0.0029
2778.00,0.0029
2777.00,0.0029
2776.00,0.0028
2775.00,0.0028
2774.00,0.0028
2773.00,0.0028
2772.00,0.0028
2771.00,0.0028
2770.00,0.0028
2769.00,0.0027
2768.00,0.0027
2767.00,0.0027
2766.00,0.0027
2765.00,0.0026
2764.00,0.0026
2763.00,0.0026
2762.00,0.0026
2761.00,0.0026
2760.00,0.0026
2759.00,0.0026
2758.00,0.0026
2757.00,0.0026
2756.00,0.0026
2755.00,0.0026
2754.00,0.0025
2753.00,0.0025
2752.00,0.0026
2751.00,0.0026
2750.00,0.0026
2749.00,0.0026
2748.00,0.0026
2747.00,0.0026
2746.00,0.0026
2745.00,0.0026
2744.00,0.0025
2743.00,0.0025
2742.00,0.0025
2741.00,0.0025
2740.00,0.0025
2739.00,0.0025
2738.00,0.0025
2737.00,0.0025
2736.00,0.0025
2735.00,0.0025
2734.00,0.0025
2733.00,0.0025
2732.00,0.0025
2731.00,0.0025
2730.00,0.0025
2729.00,0.0025
2728.00,0.0025
2727.00,0.0025
2726.00,0.0025
2725.00,0.0025
2724.00,0.0025
2723.00,0.0025
2722.00,0.0025
2721.00,0.0025
2720.00,0.0025
2719.00,0.0025
2718.00,0.0025
2717.00,0.0025
2716.00,0.0025
2715.00,0.0025
2714.00,0.0025
2713.00,0.0025
2712.00,0.0025
2711.00,0.0025
2710.00,0.0025
2709.00,0.0025
2708.00,0.0025
2707.00,0.0025
2706.00,0.0025
2705.00,0.0025
2704.00,0.0025
2703.00,0.0025
2702.00,0.0025
2701.00,0.0025
2700.00,0.0025
2699.00,0.0025
2698.00,0.0025
2697.00,0.0025
2696.00,0.0025
2695.00,0.0025
2694.00,0.0025
2693.00,0.0025
2692.00,0.0025
2691.00,0.0025
2690.00,0.0025
2689.00,0.0025
2688.00,0.0025
2687.00,0.0025
2686.00,0.0025
2685.00,0.0025
2684.00,0.0025
2683.00,0.0025
2682.00,0.0025
2681.00,0.0025
2680.00,0.0025
2679.00,0.0025
2678.00,0.0025
2677.00,0.0025
2676.00,0.0025
2675.00,0.0025
2674.00,0.0025
2673.00,0.0025
2672.00,0.0025
2671.00,0.0025
2670.00,0.0025
2669.00,0.0025
2668.00,0.0025
2667.00,0.0026
2666.00,0.0026
2665.00,0.0027
2664.00,0.0027
2663.00,0.0028
2662.00,0.0028
2661.00,0.0029
2660.00,0.0029
2659.00,0.0029
2658.00,0.0030
2657.00,0.0030
2656.00,0.0030
2655.00,0.0030
2654.00,0.0030
2653.00,0.0030
2652.00,0.0030
2651.00,0.0030
2650.00,0.0030
2649.00,0.0030
2648.00,0.0030
2647.00,0.0030
2646.00,0.0031
2645.00,0.0031
2644.00,0.0030
2643.00,0.0030
2642.00,0.0030
2641.00,0.0031
2640.00,0.0031
2639.00,0.0031
2638.00,0.0031
2637.00,0.0032
2636.00,0.0032
2635.00,0.0032
2634.00,0.0032
2633.00,0.0032
2632.00,0.0032
2631.00,0.0032
2630.00,0.0032
2629.00,0.0031
2628.00,0.0030
2627.00,0.0030
2626.00,0.0029
2625.00,0.0029
2624.00,0.0029
2623.00,0.0029
2622.00,0.0029
2621.00,0.0029
2620.00,0.0029
2619.00,0.0028
2618.00,0.0028
2617.00,0.0028
2616.00,0.0028
2615.00,0.0028
2614.00,0.0028
2613.00,0.0028
2612.00,0.0028
2611.00,0.0028
2610.00,0.0028
2609.00,0.0028
2608.00,0.0028
2607.00,0.0028
2606.00,0.0028
2605.00,0.0028
2604.00,0.0028
2603.00,0.0028
2602.00,0.0028
2601.00,0.0027
2600.00,0.0027
2599.00,0.0027
2598.00,0.0026
2597.00,0.0026
2596.00,0.0026
2595.00,0.0026
2594.00,0.0025
2593.00,0.0025
2592.00,0.0025
2591.00,0.0025
2590.00,0.0025
2589.00,0.0025
2588.00,0.0025
2587.00,0.0025
2586.00,0.0025
2585.00,0.0025
2584.00,0.0025
2583.00,0.0025
2582.00,0.0025
2581.00,0.0025
2580.00,0.0025
2579.00,0.0025
2578.00,0.0025
2577.00,0.0025
2576.00,0.0024
2575.00,0.0024
2574.00,0.0023
2573.00,0.0023
2572.00,0.0023
2571.00,0.0023
2570.00,0.0023
2569.00,0.0023
2568.00,0.0023
2567.00,0.0023
2566.00,0.0023
2565.00,0.0022
2564.00,0.0022
2563.00,0.0022
2562.00,0.0022
2561.00,0.0021
2560.00,0.0021
2559.00,0.0021
2558.00,0.0021
2557.00,0.0021
2556.00,0.0021
2555.00,0.0022
2554.00,0.0022
2553.00,0.0022
2552.00,0.0022
2551.00,0.0021
2550.00,0.0021
2549.00,0.0021
2548.00,0.0021
2547.00,0.0021
2546.00,0.0021
2545.00,0.0021
2544.00,0.0021
2543.00,0.0021
2542.00,0.0021
2541.00,0.0021
2540.00,0.0021
2539.00,0.0021
2538.00,0.0021
2537.00,0.0021
2536.00,0.0021
2535.00,0.0021
2534.00,0.0021
2533.00,0.0021
2532.00,0.0021
2531.00,0.0021
2530.00,0.0021
2529.00,0.0020
2528.00,0.0020
2527.00,0.0020
2526.00,0.0020
2525.00,0.0021
2524.00,0.0021
2523.00,0.0021
2522.00,0.0021
2521.00,0.0020
2520.00,0.0020
2519.00,0.0020
2518.00,0.0020
2517.00,0.0020
2516.00,0.0020
2515.00,0.0021
2514.00,0.0020
2513.00,0.0020
2512.00,0.0020
2511.00,0.0020
2510.00,0.0019
2509.00,0.0019
2508.00,0.0020
2507.00,0.0020
2506.00,0.0020
2505.00,0.0019
2504.00,0.0019
2503.00,0.0019
2502.00,0.0019
2501.00,0.0019
2500.00,0.0019
2499.00,0.0019
2498.00,0.0019
2497.00,0.0018
2496.00,0.0018
2495.00,0.0018
2494.00,0.0019
2493.00,0.0019
2492.00,0.0019
2491.00,0.0019
2490.00,0.0019
2489.00,0.0019
2488.00,0.0019
2487.00,0.0018
2486.00,0.0018
2485.00,0.0018
2484.00,0.0018
2483.00,0.0018
2482.00,0.0018
2481.00,0.0018
2480.00,0.0018
2479.00,0.0018
2478.00,0.0018
2477.00,0.0017
2476.00,0.0017
2475.00,0.0017
2474.00,0.0017
2473.00,0.0017
2472.00,0.0018
2471.00,0.0018
2470.00,0.0018
2469.00,0.0018
2468.00,0.0018
2467.00,0.0018
2466.00,0.0018
2465.00,0.0018
2464.00,0.0018
2463.00,0.0018
2462.00,0.0018
2461.00,0.0018
2460.00,0.0018
2459.00,0.0018
2458.00,0.0018
2457.00,0.0018
2456.00,0.0019
2455.00,0.0019
2454.00,0.0019
2453.00,0.0019
2452.00,0.0018
2451.00,0.0018
2450.00,0.0017
2449.00,0.0017
2448.00,0.0017
2447.00,0.0017
2446.00,0.0017
2445.00,0.0017
2444.00,0.0017
2443.00,0.0017
2442.00,0.0017
2441.00,0.0017
2440.00,0.0017
2439.00,0.0017
2438.00,0.0016
2437.00,0.0016
2436.00,0.0016
2435.00,0.0016
2434.00,0.0016
2433.00,0.0016
2432.00,0.0015
2431.00,0.0015
2430.00,0.0014
2429.00,0.0014
2428.00,0.0014
2427.00,0.0014
2426.00,0.0014
2425.00,0.0014
2424.00,0.0014
2423.00,0.0013
2422.00,0.0013
2421.00,0.0013
2420.00,0.0013
2419.00,0.0013
2418.00,0.0014
2417.00,0.0014
2416.00,0.0014
2415.00,0.0014
2414.00,0.0014
2413.00,0.0014
2412.00,0.0014
2411.00,0.0014
2410.00,0.0014
2409.00,0.0014
2408.00,0.0013
2407.00,0.0012
2406.00,0.0012
2405.00,0.0012
2404.00,0.0012
2403.00,0.0012
2402.00,0.0012
2401.00,0.0012
2400.00,0.0013
2399.00,0.0013
2398.00,0.0013
2397.00,0.0013
2396.00,0.0013
2395.00,0.0012
2394.00,0.0012
2393.00,0.0012
2392.00,0.0011
2391.00,0.0011
2390.00,0.0011
2389.00,0.0011
2388.00,0.0011
2387.00,0.0011
2386.00,0.0011
2385.00,0.0011
2384.00,0.0011
2383.00,0.0011
2382.00,0.0011
2381.00,0.0011
2380.00,0.0011
2379.00,0.0011
2378.00,0.0012
2377.00,0.0012
2376.00,0.0012
2375.00,0.0012
2374.00,0.0011
2373.00,0.0011
2372.00,0.0010
2371.00,0.0010
2370.00,0.0010
2369.00,0.0010
2368.00,0.0011
2367.00,0.0012
2366.00,0.0013
2365.00,0.0013
2364.00,0.0013
2363.00,0.0014
2362.00,0.0014
2361.00,0.0015
2360.00,0.0016
2359.00,0.0016
2358.00,0.0016
2357.00,0.0016
2356.00,0.0016
2355.00,0.0016
2354.00,0.0016
2353.00,0.0016
2352.00,0.0016
2351.00,0.0016
2350.00,0.0017
2349.00,0.0017
2348.00,0.0018
2347.00,0.0019
2346.00,0.0019
2345.00,0.0020
2344.00,0.0019
2343.00,0.0019
2342.00,0.0020
2341.00,0.0020
2340.00,0.0021
2339.00,0.0022
2338.00,0.0022
2337.00,0.0022
2336.00,0.0022
2335.00,0.0022
2334.00,0.0022
2333.00,0.0021
2332.00,0.0021
2331.00,0.0021
2330.00,0.0021
2329.00,0.0023
2328.00,0.0026
2327.00,0.0031
2326.00,0.0034
2325.00,0.0035
2324.00,0.0034
2323.00,0.0032
2322.00,0.0030
2321.00,0.0029
2320.00,0.0028
2319.00,0.0027
2318.00,0.0026
2317.00,0.0026
2316.00,0.0025
2315.00,0.0025
2314.00,0.0025
2313.00,0.0025
2312.00,0.0025
2311.00,0.0025
2310.00,0.0025
2309.00,0.0025
2308.00,0.0024
2307.00,0.0024
2306.00,0.0024
2305.00,0.0024
2304.00,0.0023
2303.00,0.0023
2302.00,0.0022
2301.00,0.0022
2300.00,0.0022
2299.00,0.0022
2298.00,0.0022
2297.00,0.0023
2296.00,0.0024
2295.00,0.0025
2294.00,0.0026
2293.00,0.0027
2292.00,0.0028
2291.00,0.0028
2290.00,0.0029
2289.00,0.0029
2288.00,0.0029
2287.00,0.0029
2286.00,0.0029
2285.00,0.0028
2284.00,0.0026
2283.00,0.0025
2282.00,0.0024
2281.00,0.0022
2280.00,0.0022
2279.00,0.0021
2278.00,0.0021
2277.00,0.0020
2276.00,0.0020
2275.00,0.0020
2274.00,0.0021
2273.00,0.0021
2272.00,0.0021
2271.00,0.0020
2270.00,0.0020
2269.00,0.0019
2268.00,0.0018
2267.00,0.0017
2266.00,0.0017
2265.00,0.0017
2264.00,0.0018
2263.00,0.0019
2262.00,0.0019
2261.00,0.0019
2260.00,0.0019
2259.00,0.0019
2258.00,0.0019
2257.00,0.0018
2256.00,0.0017
2255.00,0.0016
2254.00,0.0016
2253.00,0.0016
2252.00,0.0016
2251.00,0.0017
2250.00,0.0017
2249.00,0.0016
2248.00,0.0016
2247.00,0.0016
2246.00,0.0016
2245.00,0.0016
2244.00,0.0016
2243.00,0.0016
2242.00,0.0016
2241.00,0.0016
2240.00,0.0016
2239.00,0.0015
2238.00,0.0015
2237.00,0.0015
2236.00,0.0015
2235.00,0.0015
2234.00,0.0015
2233.00,0.0016
2232.00,0.0016
2231.00,0.0017
2230.00,0.0016
2229.00,0.0016
2228.00,0.0015
2227.00,0.0015
2226.00,0.0014
2225.00,0.0014
2224.00,0.0014
2223.00,0.0015
2222.00,0.0015
2221.00,0.0015
2220.00,0.0015
2219.00,0.0014
2218.00,0.0013
2217.00,0.0013
2216.00,0.0013
2215.00,0.0012
2214.00,0.0012
2213.00,0.0012
2212.00,0.0012
2211.00,0.0013
2210.00,0.0014
2209.00,0.0015
2208.00,0.0015
2207.00,0.0015
2206.00,0.0013
2205.00,0.0012
2204.00,0.0012
2203.00,0.0013
2202.00,0.0014
2201.00,0.0014
2200.00,0.0014
2199.00,0.0014
2198.00,0.0014
2197.00,0.0014
2196.00,0.0014
2195.00,0.0015
2194.00,0.0016
2193.00,0.0017
2192.00,0.0017
2191.00,0.0017
2190.00,0.0018
2189.00,0.0018
2188.00,0.0018
2187.00,0.0017
2186.00,0.0017
2185.00,0.0015
2184.00,0.0013
2183.00,0.0011
2182.00,0.0010
2181.00,0.0010
2180.00,0.0011
2179.00,0.0011
2178.00,0.0010
2177.00,0.0008
2176.00,0.0005
2175.00,0.0005
2174.00,0.0005
2173.00,0.0007
2172.00,0.0010
2171.00,0.0013
2170.00,0.0016
2169.00,0.0018
2168.00,0.0019
2167.00,0.0020
2166.00,0.0021
2165.00,0.0022
2164.00,0.0024
2163.00,0.0023
2162.00,0.0016
2161.00,0.0002
2160.00,-0.0014
2159.00,-0.0026
2158.00,-0.0030
2157.00,-0.0029
2156.00,-0.0025
2155.00,-0.0021
2154.00,-0.0018
2153.00,-0.0015
2152.00,-0.0012
2151.00,-0.0011
2150.00,-0.0010
2149.00,-0.0010
2148.00,-0.0010
2147.00,-0.0010
2146.00,-0.0009
2145.00,-0.0008
2144.00,-0.0008
2143.00,-0.0008
2142.00,-0.0009
2141.00,-0.0010
2140.00,-0.0011
2139.00,-0.0012
2138.00,-0.0013
2137.00,-0.0014
2136.00,-0.0016
2135.00,-0.0016
2134.00,-0.0016
2133.00,-0.0015
2132.00,-0.0013
2131.00,-0.0011
2130.00,-0.0009
2129.00,-0.0007
2128.00,-0.0004
2127.00,-0.0002
2126.00,-0.0001
2125.00,-0.0000
2124.00,0.0001
2123.00,0.0001
2122.00,0.0001
2121.00,0.0002
2120.00,0.0003
2119.00,0.0004
2118.00,0.0006
2117.00,0.0008
2116.00,0.0009
2115.00,0.0009
2114.00,0.0010
2113.00,0.0010
2112.00,0.0010
2111.00,0.0009
2110.00,0.0009
2109.00,0.0009
2108.00,0.0010
2107.00,0.0010
2106.00,0.0009
2105.00,0.0009
2104.00,0.0009
2103.00,0.0009
2102.00,0.0009
2101.00,0.0010
2100.00,0.0009
2099.00,0.0008
2098.00,0.0006
2097.00,0.0004
2096.00,0.0003
2095.00,0.0002
2094.00,0.0002
2093.00,0.0004
2092.00,0.0005
2091.00,0.0006
2090.00,0.0007
2089.00,0.0008
2088.00,0.0009
2087.00,0.0009
2086.00,0.0010
2085.00,0.0010
2084.00,0.0010
2083.00,0.0010
2082.00,0.0011
2081.00,0.0011
2080.00,0.0011
2079.00,0.0012
2078.00,0.0012
2077.00,0.0012
2076.00,0.0011
2075.00,0.0010
2074.00,0.0009
2073.00,0.0009
2072.00,0.0010
2071.00,0.0009
2070.00,0.0009
2069.00,0.0008
2068.00,0.0007
2067.00,0.0006
2066.00,0.0006
2065.00,0.0006
2064.00,0.0006
2063.00,0.0006
2062.00,0.0006
2061.00,0.0006
2060.00,0.0005
2059.00,0.0005
2058.00,0.0005
2057.00,0.0005
2056.00,0.0005
2055.00,0.0006
2054.00,0.0009
2053.00,0.0014
2052.00,0.0018
2051.00,0.0018
2050.00,0.0014
2049.00,0.0010
2048.00,0.0007
2047.00,0.0006
2046.00,0.0005
2045.00,0.0005
2044.00,0.0005
2043.00,0.0006
2042.00,0.0007
2041.00,0.0008
2040.00,0.0009
2039.00,0.0009
2038.00,0.0009
2037.00,0.0009
2036.00,0.0008
2035.00,0.0006
2034.00,0.0004
2033.00,0.0001
2032.00,-0.0002
2031.00,-0.0004
2030.00,-0.0005
2029.00,-0.0005
2028.00,-0.0004
2027.00,-0.0002
2026.00,-0.0000
2025.00,0.0001
2024.00,0.0001
2023.00,0.0001
2022.00,-0.0000
2021.00,-0.0001
2020.00,-0.0001
2019.00,-0.0001
2018.00,-0.0001
2017.00,-0.0001
2016.00,-0.0001
2015.00,-0.0000
2014.00,0.0000
2013.00,0.0001
2012.00,0.0002
2011.00,0.0003
2010.00,0.0003
2009.00,0.0001
2008.00,-0.0002
2007.00,-0.0005
2006.00,-0.0007
2005.00,-0.0008
2004.00,-0.0007
2003.00,-0.0006
2002.00,-0.0004
2001.00,-0.0002
2000.00,-0.0001
1999.00,0.0000
1998.00,0.0001
1997.00,0.0003
1996.00,0.0005
1995.00,0.0007
1994.00,0.0010
1993.00,0.0011
1992.00,0.0013
1991.00,0.0013
1990.00,0.0013
1989.00,0.0014
1988.00,0.0015
1987.00,0.0016
1986.00,0.0017
1985.00,0.0019
1984.00,0.0022
1983.00,0.0024
1982.00,0.0026
1981.00,0.0025
1980.00,0.0020
1979.00,0.0013
1978.00,0.0006
1977.00,0.0003
1976.00,0.0002
1975.00,0.0003
1974.00,0.0003
1973.00,0.0002
1972.00,0.0003
1971.00,0.0004
1970.00,0.0006
1969.00,0.0008
1968.00,0.0009
1967.00,0.0010
1966.00,0.0011
1965.00,0.0012
1964.00,0.0014
1963.00,0.0015
1962.00,0.0015
1961.00,0.0015
1960.00,0.0016
1959.00,0.0017
1958.00,0.0019
1957.00,0.0021
1956.00,0.0023
1955.00,0.0025
1954.00,0.0026
1953.00,0.0027
1952.00,0.0028
1951.00,0.0030
1950.00,0.0032
1949.00,0.0034
1948.00,0.0036
1947.00,0.0038
1946.00,0.0040
1945.00,0.0042
1944.00,0.0044
1943.00,0.0045
1942.00,0.0044
1941.00,0.0043
1940.00,0.0041
1939.00,0.0039
1938.00,0.0037
1937.00,0.0036
1936.00,0.0033
1935.00,0.0031
1934.00,0.0027
1933.00,0.0024
1932.00,0.0021
1931.00,0.0019
1930.00,0.0018
1929.00,0.0017
1928.00,0.0016
1927.00,0.0015
1926.00,0.0013
1925.00,0.0012
1924.00,0.0011
1923.00,0.0011
1922.00,0.0011
1921.00,0.0010
1920.00,0.0010
1919.00,0.0009
1918.00,0.0008
1917.00,0.0008
1916.00,0.0008
1915.00,0.0008
1914.00,0.0008
1913.00,0.0009
1912.00,0.0009
1911.00,0.0009
1910.00,0.0010
1909.00,0.0010
1908.00,0.0010
1907.00,0.0010
1906.00,0.0010
1905.00,0.0010
1904.00,0.0010
1903.00,0.0010
1902.00,0.0010
1901.00,0.0011
1900.00,0.0012
1899.00,0.0013
1898.00,0.0015
1897.00,0.0017
1896.00,0.0018
1895.00,0.0020
1894.00,0.0021
1893.00,0.0022
1892.00,0.0023
1891.00,0.0024
1890.00,0.0026
1889.00,0.0027
1888.00,0.0028
1887.00,0.0029
1886.00,0.0030
1885.00,0.0031
1884.00,0.0032
1883.00,0.0033
1882.00,0.0034
1881.00,0.0034
1880.00,0.0035
1879.00,0.0037
1878.00,0.0037
1877.00,0.0038
1876.00,0.0039
1875.00,0.0039
1874.00,0.0040
1873.00,0.0040
1872.00,0.0041
1871.00,0.0042
1870.00,0.0042
1869.00,0.0042
1868.00,0.0042
1867.00,0.0040
1866.00,0.0039
1865.00,0.0037
1864.00,0.0035
1863.00,0.0034
1862.00,0.0032
1861.00,0.0030
1860.00,0.0028
1859.00,0.0026
1858.00,0.0024
1857.00,0.0022
1856.00,0.0021
1855.00,0.0019
1854.00,0.0018
1853.00,0.0016
1852.00,0.0015
1851.00,0.0014
1850.00,0.0014
1849.00,0.0013
1848.00,0.0013
1847.00,0.0013
1846.00,0.0012
1845.00,0.0012
1844.00,0.0011
1843.00,0.0011
1842.00,0.0011
1841.00,0.0010
1840.00,0.0010
1839.00,0.0011
1838.00,0.0011
1837.00,0.0011
1836.00,0.0012
1835.00,0.0012
1834.00,0.0012
1833.00,0.0013
1832.00,0.0014
1831.00,0.0015
1830.00,0.0016
1829.00,0.0017
1828.00,0.0018
1827.00,0.0019
1826.00,0.0020
1825.00,0.0022
1824.00,0.0023
1823.00,0.0024
1822.00,0.0025
1821.00,0.0025
1820.00,0.0026
1819.00,0.0026
1818.00,0.0026
1817.00,0.0027
1816.00,0.0029
1815.00,0.0031
1814.00,0.0033
1813.00,0.0035
1812.00,0.0037
1811.00,0.0039
1810.00,0.0041
1809.00,0.0042
1808.00,0.0044
1807.00,0.0045
1806.00,0.0046
1805.00,0.0047
1804.00,0.0048
1803.00,0.0049
1802.00,0.0049
1801.00,0.0049
1800.00,0.0048
1799.00,0.0046
1798.00,0.0045
1797.00,0.0043
1796.00,0.0041
1795.00,0.0039
1794.00,0.0037
1793.00,0.0034
1792.00,0.0032
1791.00,0.0030
1790.00,0.0028
1789.00,0.0027
1788.00,0.0025
1787.00,0.0025
1786.00,0.0024
1785.00,0.0024
1784.00,0.0024
1783.00,0.0024
1782.00,0.0024
1781.00,0.0024
1780.00,0.0023
1779.00,0.0023
1778.00,0.0023
1777.00,0.0023
1776.00,0.0024
1775.00,0.0024
1774.00,0.0025
1773.00,0.0025
1772.00,0.0025
1771.00,0.0025
1770.00,0.0025
1769.00,0.0025
1768.00,0.0025
1767.00,0.0025
1766.00,0.0026
1765.00,0.0026
1764.00,0.0027
1763.00,0.0029
1762.00,0.0031
1761.00,0.0032
1760.00,0.0033
1759.00,0.0035
1758.00,0.0036
1757.00,0.0038
1756.00,0.0039
1755.00,0.0041
1754.00,0.0042
1753.00,0.0044
1752.00,0.0046
1751.00,0.0049
1750.00,0.0051
1749.00,0.0053
1748.00,0.0055
1747.00,0.0056
1746.00,0.0058
1745.00,0.0059
1744.00,0.0060
1743.00,0.0060
1742.00,0.0060
1741.00,0.0060
1740.00,0.0061
1739.00,0.0061
1738.00,0.0061
1737.00,0.0061
1736.00,0.0060
1735.00,0.0059
1734.00,0.0058
1733.00,0.0057
1732.00,0.0056
1731.00,0.0055
1730.00,0.0054
1729.00,0.0053
1728.00,0.0052
1727.00,0.0051
1726.00,0.0050
1725.00,0.0049
1724.00,0.0048
1723.00,0.0046
1722.00,0.0045
1721.00,0.0043
1720.00,0.0042
1719.00,0.0042
1718.00,0.0041
1717.00,0.0040
1716.00,0.0040
1715.00,0.0039
1714.00,0.0038
1713.00,0.0038
1712.00,0.0038
1711.00,0.0037
1710.00,0.0037
1709.00,0.0037
1708.00,0.0037
1707.00,0.0036
1706.00,0.0036
1705.00,0.0036
1704.00,0.0036
1703.00,0.0035
1702.00,0.0034
1701.00,0.0033
1700.00,0.0032
1699.00,0.0032
1698.00,0.0031
1697.00,0.0031
1696.00,0.0031
1695.00,0.0031
1694.00,0.0031
1693.00,0.0030
1692.00,0.0030
1691.00,0.0030
1690.00,0.0031
1689.00,0.0031
1688.00,0.0031
1687.00,0.0031
1686.00,0.0031
1685.00,0.0032
1684.00,0.0033
1683.00,0.0034
1682.00,0.0034
1681.00,0.0035
1680.00,0.0035
1679.00,0.0034
1678.00,0.0034
1677.00,0.0034
1676.00,0.0033
1675.00,0.0034
1674.00,0.0034
1673.00,0.0034
1672.00,0.0034
1671.00,0.0033
1670.00,0.0033
1669.00,0.0032
1668.00,0.0032
1667.00,0.0031
1666.00,0.0030
1665.00,0.0030
1664.00,0.0029
1663.00,0.0028
1662.00,0.0027
1661.00,0.0027
1660.00,0.0026
1659.00,0.0025
1658.00,0.0024
1657.00,0.0024
1656.00,0.0023
1655.00,0.0023
1654.00,0.0023
1653.00,0.0023
1652.00,0.0022
1651.00,0.0022
1650.00,0.0022
1649.00,0.0021
1648.00,0.0021
1647.00,0.0021
1646.00,0.0021
1645.00,0.0021
1644.00,0.0021
1643.00,0.0022
1642.00,0.0022
1641.00,0.0022
1640.00,0.0022
1639.00,0.0023
1638.00,0.0022
1637.00,0.0022
1636.00,0.0022
1635.00,0.0022
1634.00,0.0023
1633.00,0.0024
1632.00,0.0024
1631.00,0.0024
1630.00,0.0024
1629.00,0.0024
1628.00,0.0025
1627.00,0.0025
1626.00,0.0025
1625.00,0.0026
1624.00,0.0026
1623.00,0.0026
1622.00,0.0026
1621.00,0.0027
1620.00,0.0027
1619.00,0.0028
1618.00,0.0030
1617.00,0.0033
1616.00,0.0036
1615.00,0.0040
1614.00,0.0043
1613.00,0.0048
1612.00,0.0055
1611.00,0.0064
1610.00,0.0077
1609.00,0.0095
1608.00,0.0118
1607.00,0.0147
1606.00,0.0180
1605.00,0.0216
1604.00,0.0251
1603.00,0.0281
1602.00,0.0300
1601.00,0.0304
1600.00,0.0292
1599.00,0.0268
1598.00,0.0236
1597.00,0.0203
1596.00,0.0173
1595.00,0.0148
1594.00,0.0128
1593.00,0.0113
1592.00,0.0101
1591.00,0.0092
1590.00,0.0086
1589.00,0.0083
1588.00,0.0085
1587.00,0.0091
1586.00,0.0101
1585.00,0.0112
1584.00,0.0119
1583.00,0.0121
1582.00,0.0114
1581.00,0.0102
1580.00,0.0087
1579.00,0.0074
1578.00,0.0063
1577.00,0.0055
1576.00,0.0048
1575.00,0.0043
1574.00,0.0040
1573.00,0.0037
1572.00,0.0035
1571.00,0.0033
1570.00,0.0031
1569.00,0.0030
1568.00,0.0028
1567.00,0.0028
1566.00,0.0027
1565.00,0.0027
1564.00,0.0027
1563.00,0.0027
1562.00,0.0027
1561.00,0.0027
1560.00,0.0026
1559.00,0.0027
1558.00,0.0027
1557.00,0.0028
1556.00,0.0029
1555.00,0.0030
1554.00,0.0031
1553.00,0.0033
1552.00,0.0034
1551.00,0.0036
1550.00,0.0038
1549.00,0.0039
1548.00,0.0040
1547.00,0.0041
1546.00,0.0042
1545.00,0.0043
1544.00,0.0044
1543.00,0.0044
1542.00,0.0043
1541.00,0.0042
1540.00,0.0041
1539.00,0.0039
1538.00,0.0039
1537.00,0.0038
1536.00,0.0038
1535.00,0.0037
1534.00,0.0035
1533.00,0.0033
1532.00,0.0032
1531.00,0.0031
1530.00,0.0030
1529.00,0.0029
1528.00,0.0028
1527.00,0.0028
1526.00,0.0027
1525.00,0.0027
1524.00,0.0026
1523.00,0.0026
1522.00,0.0026
1521.00,0.0026
1520.00,0.0026
1519.00,0.0027
1518.00,0.0027
1517.00,0.0028
1516.00,0.0029
1515.00,0.0029
1514.00,0.0030
1513.00,0.0030
1512.00,0.0032
1511.00,0.0034
1510.00,0.0036
1509.00,0.0038
1508.00,0.0040
1507.00,0.0043
1506.00,0.0047
1505.00,0.0053
1504.00,0.0060
1503.00,0.0070
1502.00,0.0082
1501.00,0.0100
1500.00,0.0127
1499.00,0.0170
1498.00,0.0237
1497.00,0.0339
1496.00,0.0469
1495.00,0.0600
1494.00,0.0700
1493.00,0.0748
1492.00,0.0735
1491.00,0.0662
1490.00,0.0549
1489.00,0.0433
1488.00,0.0341
1487.00,0.0274
1486.00,0.0224
1485.00,0.0187
1484.00,0.0158
1483.00,0.0134
1482.00,0.0116
1481.00,0.0102
1480.00,0.0092
1479.00,0.0085
1478.00,0.0079
1477.00,0.0075
1476.00,0.0072
1475.00,0.0070
1474.00,0.0067
1473.00,0.0066
1472.00,0.0066
1471.00,0.0066
1470.00,0.0066
1469.00,0.0067
1468.00,0.0068
1467.00,0.0070
1466.00,0.0073
1465.00,0.0076
1464.00,0.0082
1463.00,0.0089
1462.00,0.0098
1461.00,0.0110
1460.00,0.0128
1459.00,0.0159
1458.00,0.0218
1457.00,0.0321
1456.00,0.0449
1455.00,0.0569
1454.00,0.0666
1453.00,0.0735
1452.00,0.0764
1451.00,0.0750
1450.00,0.0705
1449.00,0.0645
1448.00,0.0584
1447.00,0.0531
1446.00,0.0487
1445.00,0.0447
1444.00,0.0410
1443.00,0.0374
1442.00,0.0341
1441.00,0.0311
1440.00,0.0286
1439.00,0.0262
1438.00,0.0239
1437.00,0.0214
1436.00,0.0190
1435.00,0.0168
1434.00,0.0151
1433.00,0.0136
1432.00,0.0122
1431.00,0.0110
1430.00,0.0099
1429.00,0.0090
1428.00,0.0083
1427.00,0.0077
1426.00,0.0073
1425.00,0.0069
1424.00,0.0066
1423.00,0.0064
1422.00,0.0062
1421.00,0.0060
1420.00,0.0059
1419.00,0.0059
1418.00,0.0058
1417.00,0.0057
1416.00,0.0055
1415.00,0.0054
1414.00,0.0053
1413.00,0.0053
1412.00,0.0052
1411.00,0.0051
1410.00,0.0051
1409.00,0.0050
1408.00,0.0050
1407.00,0.0049
1406.00,0.0049
1405.00,0.0049
1404.00,0.0048
1403.00,0.0048
1402.00,0.0048
1401.00,0.0048
1400.00,0.0048
1399.00,0.0050
1398.00,0.0051
1397.00,0.0053
1396.00,0.0055
1395.00,0.0057
1394.00,0.0061
1393.00,0.0064
1392.00,0.0068
1391.00,0.0072
1390.00,0.0077
1389.00,0.0083
1388.00,0.0089
1387.00,0.0094
1386.00,0.0100
1385.00,0.0105
1384.00,0.0109
1383.00,0.0113
1382.00,0.0118
1381.00,0.0123
1380.00,0.0127
1379.00,0.0132
1378.00,0.0136
1377.00,0.0141
1376.00,0.0146
1375.00,0.0150
1374.00,0.0153
1373.00,0.0155
1372.00,0.0156
1371.00,0.0155
1370.00,0.0155
1369.00,0.0154
1368.00,0.0153
1367.00,0.0151
1366.00,0.0150
1365.00,0.0149
1364.00,0.0148
1363.00,0.0147
1362.00,0.0145
1361.00,0.0143
1360.00,0.0140
1359.00,0.0137
1358.00,0.0135
1357.00,0.0133
1356.00,0.0132
1355.00,0.0131
1354.00,0.0131
1353.00,0.0130
1352.00,0.0130
1351.00,0.0130
1350.00,0.0130
1349.00,0.0129
1348.00,0.0129
1347.00,0.0127
1346.00,0.0125
1345.00,0.0123
1344.00,0.0121
1343.00,0.0119
1342.00,0.0117
1341.00,0.0116
1340.00,0.0114
1339.00,0.0113
1338.00,0.0113
1337.00,0.0114
1336.00,0.0115
1335.00,0.0117
1334.00,0.0119
1333.00,0.0122
1332.00,0.0126
1331.00,0.0129
1330.00,0.0131
1329.00,0.0132
1328.00,0.0133
1327.00,0.0132
1326.00,0.0130
1325.00,0.0128
1324.00,0.0126
1323.00,0.0124
1322.00,0.0123
1321.00,0.0122
1320.00,0.0122
1319.00,0.0122
1318.00,0.0122
1317.00,0.0124
1316.00,0.0125
1315.00,0.0126
1314.00,0.0128
1313.00,0.0129
1312.00,0.0129
1311.00,0.0128
1310.00,0.0127
1309.00,0.0125
1308.00,0.0123
1307.00,0.0120
1306.00,0.0118
1305.00,0.0115
1304.00,0.0113
1303.00,0.0110
1302.00,0.0108
1301.00,0.0106
1300.00,0.0103
1299.00,0.0102
1298.00,0.0100
1297.00,0.0099
1296.00,0.0098
1295.00,0.0097
1294.00,0.0096
1293.00,0.0095
1292.00,0.0094
1291.00,0.0093
1290.00,0.0092
1289.00,0.0091
1288.00,0.0090
1287.00,0.0089
1286.00,0.0088
1285.00,0.0088
1284.00,0.0088
1283.00,0.0088
1282.00,0.0088
1281.00,0.0087
1280.00,0.0087
1279.00,0.0086
1278.00,0.0084
1277.00,0.0082
1276.00,0.0080
1275.00,0.0078
1274.00,0.0076
1273.00,0.0074
1272.00,0.0072
1271.00,0.0071
1270.00,0.0069
1269.00,0.0068
1268.00,0.0067
1267.00,0.0066
1266.00,0.0065
1265.00,0.0064
1264.00,0.0063
1263.00,0.0062
1262.00,0.0062
1261.00,0.0061
1260.00,0.0061
1259.00,0.0061
1258.00,0.0062
1257.00,0.0062
1256.00,0.0062
1255.00,0.0063
1254.00,0.0063
1253.00,0.0064
1252.00,0.0065
1251.00,0.0065
1250.00,0.0066
1249.00,0.0067
1248.00,0.0067
1247.00,0.0067
1246.00,0.0068
1245.00,0.0068
1244.00,0.0067
1243.00,0.0067
1242.00,0.0067
1241.00,0.0066
1240.00,0.0066
1239.00,0.0065
1238.00,0.0065
1237.00,0.0064
1236.00,0.0064
1235.00,0.0063
1234.00,0.0063
1233.00,0.0063
1232.00,0.0064
1231.00,0.0064
1230.00,0.0065
1229.00,0.0065
1228.00,0.0066
1227.00,0.0066
1226.00,0.0066
1225.00,0.0067
1224.00,0.0067
1223.00,0.0067
1222.00,0.0067
1221.00,0.0067
1220.00,0.0067
1219.00,0.0067
1218.00,0.0067
1217.00,0.0068
1216.00,0.0068
1215.00,0.0069
1214.00,0.0070
1213.00,0.0071
1212.00,0.0072
1211.00,0.0074
1210.00,0.0075
1209.00,0.0077
1208.00,0.0079
1207.00,0.0081
1206.00,0.0084
1205.00,0.0087
1204.00,0.0090
1203.00,0.0093
1202.00,0.0095
1201.00,0.0098
1200.00,0.0100
1199.00,0.0102
1198.00,0.0104
1197.00,0.0105
1196.00,0.0106
1195.00,0.0106
1194.00,0.0107
1193.00,0.0107
1192.00,0.0108
1191.00,0.0108
1190.00,0.0109
1189.00,0.0111
1188.00,0.0115
1187.00,0.0119
1186.00,0.0125
1185.00,0.0132
1184.00,0.0140
1183.00,0.0147
1182.00,0.0151
1181.00,0.0151
1180.00,0.0148
1179.00,0.0140
1178.00,0.0130
1177.00,0.0119
1176.00,0.0109
1175.00,0.0101
1174.00,0.0095
1173.00,0.0091
1172.00,0.0088
1171.00,0.0086
1170.00,0.0084
1169.00,0.0083
1168.00,0.0082
1167.00,0.0082
1166.00,0.0082
1165.00,0.0083
1164.00,0.0085
1163.00,0.0087
1162.00,0.0090
1161.00,0.0096
1160.00,0.0104
1159.00,0.0113
1158.00,0.0124
1157.00,0.0134
1156.00,0.0142
1155.00,0.0147
1154.00,0.0146
1153.00,0.0140
1152.00,0.0130
1151.00,0.0118
1150.00,0.0105
1149.00,0.0094
1148.00,0.0086
1147.00,0.0079
1146.00,0.0074
1145.00,0.0070
1144.00,0.0067
1143.00,0.0064
1142.00,0.0061
1141.00,0.0059
1140.00,0.0057
1139.00,0.0056
1138.00,0.0054
1137.00,0.0053
1136.00,0.0053
1135.00,0.0052
1134.00,0.0051
1133.00,0.0051
1132.00,0.0050
1131.00,0.0049
1130.00,0.0049
1129.00,0.0050
1128.00,0.0050
1127.00,0.0051
1126.00,0.0052
1125.00,0.0053
1124.00,0.0054
1123.00,0.0055
1122.00,0.0057
1121.00,0.0059
1120.00,0.0061
1119.00,0.0063
1118.00,0.0066
1117.00,0.0069
1116.00,0.0071
1115.00,0.0073
1114.00,0.0075
1113.00,0.0077
1112.00,0.0077
1111.00,0.0077
1110.00,0.0077
1109.00,0.0076
1108.00,0.0075
1107.00,0.0074
1106.00,0.0073
1105.00,0.0073
1104.00,0.0073
1103.00,0.0073
1102.00,0.0074
1101.00,0.0075
1100.00,0.0076
1099.00,0.0077
1098.00,0.0078
1097.00,0.0079
1096.00,0.0081
1095.00,0.0082
1094.00,0.0084
1093.00,0.0085
1092.00,0.0086
1091.00,0.0088
1090.00,0.0090
1089.00,0.0092
1088.00,0.0094
1087.00,0.0098
1086.00,0.0101
1085.00,0.0105
1084.00,0.0110
1083.00,0.0114
1082.00,0.0119
1081.00,0.0124
1080.00,0.0129
1079.00,0.0133
1078.00,0.0139
1077.00,0.0145
1076.00,0.0152
1075.00,0.0161
1074.00,0.0170
1073.00,0.0178
1072.00,0.0187
1071.00,0.0193
1070.00,0.0198
1069.00,0.0200
1068.00,0.0198
1067.00,0.0194
1066.00,0.0188
1065.00,0.0180
1064.00,0.0171
1063.00,0.0162
1062.00,0.0153
1061.00,0.0145
1060.00,0.0138
1059.00,0.0132
1058.00,0.0127
1057.00,0.0122
1056.00,0.0119
1055.00,0.0115
1054.00,0.0113
1053.00,0.0110
1052.00,0.0108
1051.00,0.0106
1050.00,0.0103
1049.00,0.0101
1048.00,0.0100
1047.00,0.0098
1046.00,0.0097
1045.00,0.0096
1044.00,0.0096
1043.00,0.0096
1042.00,0.0097
1041.00,0.0099
1040.00,0.0103
1039.00,0.0109
1038.00,0.0118
1037.00,0.0132
1036.00,0.0152
1035.00,0.0178
1034.00,0.0209
1033.00,0.0245
1032.00,0.0280
1031.00,0.0312
1030.00,0.0338
1029.00,0.0354
1028.00,0.0359
1027.00,0.0351
1026.00,0.0333
1025.00,0.0308
1024.00,0.0281
1023.00,0.0256
1022.00,0.0235
1021.00,0.0217
1020.00,0.0203
1019.00,0.0191
1018.00,0.0180
1017.00,0.0171
1016.00,0.0163
1015.00,0.0156
1014.00,0.0150
1013.00,0.0145
1012.00,0.0140
1011.00,0.0137
1010.00,0.0134
1009.00,0.0133
1008.00,0.0133
1007.00,0.0135
1006.00,0.0139
1005.00,0.0143
1004.00,0.0146
1003.00,0.0147
1002.00,0.0143
1001.00,0.0135
1000.00,0.0126
999.00,0.0117
998.00,0.0110
997.00,0.0105
996.00,0.0103
995.00,0.0101
994.00,0.0101
993.00,0.0101
992.00,0.0101
991.00,0.0102
990.00,0.0104
989.00,0.0106
988.00,0.0109
987.00,0.0112
986.00,0.0115
985.00,0.0119
984.00,0.0123
983.00,0.0127
982.00,0.0130
981.00,0.0131
980.00,0.0132
979.00,0.0131
978.00,0.0129
977.00,0.0127
976.00,0.0124
975.00,0.0120
974.00,0.0118
973.00,0.0117
972.00,0.0117
971.00,0.0119
970.00,0.0123
969.00,0.0127
968.00,0.0133
967.00,0.0138
966.00,0.0142
965.00,0.0144
964.00,0.0144
963.00,0.0142
962.00,0.0138
961.00,0.0132
960.00,0.0126
959.00,0.0118
958.00,0.0112
957.00,0.0107
956.00,0.0103
955.00,0.0099
954.00,0.0097
953.00,0.0096
952.00,0.0096
951.00,0.0097
950.00,0.0099
949.00,0.0100
948.00,0.0102
947.00,0.0104
946.00,0.0106
945.00,0.0108
944.00,0.0109
943.00,0.0109
942.00,0.0109
941.00,0.0107
940.00,0.0105
939.00,0.0102
938.00,0.0098
937.00,0.0095
936.00,0.0091
935.00,0.0087
934.00,0.0084
933.00,0.0081
932.00,0.0079
931.00,0.0077
930.00,0.0076
929.00,0.0075
928.00,0.0075
927.00,0.0075
926.00,0.0076
925.00,0.0077
924.00,0.0079
923.00,0.0081
922.00,0.0084
921.00,0.0087
920.00,0.0091
919.00,0.0095
918.00,0.0101
917.00,0.0109
916.00,0.0118
915.00,0.0130
914.00,0.0144
913.00,0.0160
912.00,0.0176
911.00,0.0193
910.00,0.0209
909.00,0.0224
908.00,0.0234
907.00,0.0241
906.00,0.0241
905.00,0.0237
904.00,0.0226
903.00,0.0212
902.00,0.0194
901.00,0.0176
900.00,0.0157
899.00,0.0139
898.00,0.0124
897.00,0.0111
896.00,0.0101
895.00,0.0093
894.00,0.0087
893.00,0.0083
892.00,0.0079
891.00,0.0076
890.00,0.0074
889.00,0.0071
888.00,0.0069
887.00,0.0067
886.00,0.0065
885.00,0.0064
884.00,0.0062
883.00,0.0061
882.00,0.0060
881.00,0.0059
880.00,0.0058
879.00,0.0057
878.00,0.0056
877.00,0.0055
876.00,0.0054
875.00,0.0053
874.00,0.0052
873.00,0.0051
872.00,0.0050
871.00,0.0050
870.00,0.0050
869.00,0.0051
868.00,0.0050
867.00,0.0050
866.00,0.0050
865.00,0.0049
864.00,0.0049
863.00,0.0049
862.00,0.0049
861.00,0.0050
860.00,0.0050
859.00,0.0050
858.00,0.0051
857.00,0.0052
856.00,0.0053
855.00,0.0055
854.00,0.0057
853.00,0.0060
852.00,0.0064
851.00,0.0068
850.00,0.0074
849.00,0.0080
848.00,0.0087
847.00,0.0093
846.00,0.0100
845.00,0.0106
844.00,0.0112
843.00,0.0115
842.00,0.0117
841.00,0.0117
840.00,0.0114
839.00,0.0110
838.00,0.0104
837.00,0.0097
836.00,0.0089
835.00,0.0080
834.00,0.0071
833.00,0.0064
832.00,0.0058
831.00,0.0054
830.00,0.0051
829.00,0.0050
828.00,0.0048
827.00,0.0047
826.00,0.0046
825.00,0.0045
824.00,0.0045
823.00,0.0045
822.00,0.0045
821.00,0.0044
820.00,0.0044
819.00,0.0044
818.00,0.0043
817.00,0.0043
816.00,0.0044
815.00,0.0045
814.00,0.0046
813.00,0.0046
812.00,0.0046
811.00,0.0046
810.00,0.0046
809.00,0.0047
808.00,0.0048
807.00,0.0048
806.00,0.0049
805.00,0.0049
804.00,0.0051
803.00,0.0052
802.00,0.0054
801.00,0.0055
800.00,0.0057
799.00,0.0059
798.00,0.0063
797.00,0.0067
796.00,0.0071
795.00,0.0076
794.00,0.0081
793.00,0.0087
792.00,0.0093
791.00,0.0100
790.00,0.0106
789.00,0.0114
788.00,0.0122
787.00,0.0131
786.00,0.0141
785.00,0.0151
784.00,0.0161
783.00,0.0172
782.00,0.0184
781.00,0.0199
780.00,0.0215
779.00,0.0235
778.00,0.0256
777.00,0.0280
776.00,0.0307
775.00,0.0337
774.00,0.0369
773.00,0.0404
772.00,0.0442
771.00,0.0482
770.00,0.0523
769.00,0.0566
768.00,0.0609
767.00,0.0651
766.00,0.0692
765.00,0.0733
764.00,0.0774
763.00,0.0816
762.00,0.0860
761.00,0.0904
760.00,0.0948
759.00,0.0988
758.00,0.1023
757.00,0.1050
756.00,0.1068
755.00,0.1077
754.00,0.1078
753.00,0.1075
752.00,0.1069
751.00,0.1064
750.00,0.1060
749.00,0.1055
748.00,0.1046
747.00,0.1028
746.00,0.0996
745.00,0.0950
744.00,0.0889
743.00,0.0820
742.00,0.0747
741.00,0.0676
740.00,0.0609
739.00,0.0548
738.00,0.0491
737.00,0.0439
736.00,0.0389
735.00,0.0342
734.00,0.0297
733.00,0.0256
732.00,0.0221
731.00,0.0192
730.00,0.0169
729.00,0.0152
728.00,0.0139
727.00,0.0130
726.00,0.0123
725.00,0.0119
724.00,0.0115
723.00,0.0113
722.00,0.0112
721.00,0.0111
720.00,0.0113
719.00,0.0116
718.00,0.0120
717.00,0.0128
716.00,0.0138
715.00,0.0151
714.00,0.0169
713.00,0.0195
712.00,0.0230
711.00,0.0279
710.00,0.0343
709.00,0.0427
708.00,0.0532
707.00,0.0658
706.00,0.0807
705.00,0.0977
704.00,0.1168
703.00,0.1377
702.00,0.1603
701.00,0.1844
700.00,0.2095
699.00,0.2354
698.00,0.2613
697.00,0.2853
696.00,0.3038
695.00,0.3120
694.00,0.3062
693.00,0.2860
692.00,0.2555
691.00,0.2211
690.00,0.1884
689.00,0.1603
688.00,0.1373
687.00,0.1190
686.00,0.1048
685.00,0.0936
684.00,0.0845
683.00,0.0770
682.00,0.0708
681.00,0.0655
680.00,0.0610
679.00,0.0570
678.00,0.0537
677.00,0.0509
676.00,0.0485
675.00,0.0464
674.00,0.0445
673.00,0.0429
672.00,0.0414
671.00,0.0401
670.00,0.0389
669.00,0.0375
668.00,0.0360
667.00,0.0344
666.00,0.0330
665.00,0.0317
664.00,0.0304
663.00,0.0291
662.00,0.0277
661.00,0.0265
660.00,0.0253
659.00,0.0242
658.00,0.0232
657.00,0.0222
656.00,0.0213
655.00,0.0204
654.00,0.0197
653.00,0.0191
652.00,0.0185
651.00,0.0179
650.00,0.0175
649.00,0.0170
648.00,0.0165
647.00,0.0160
646.00,0.0156
645.00,0.0153
644.00,0.0150
643.00,0.0149
642.00,0.0147
641.00,0.0146
640.00,0.0146
639.00,0.0147
638.00,0.0150
637.00,0.0155
636.00,0.0159
635.00,0.0164
634.00,0.0168
633.00,0.0173
632.00,0.0177
631.00,0.0180
630.00,0.0184
629.00,0.0187
628.00,0.0191
627.00,0.0194
626.00,0.0196
625.00,0.0199
624.00,0.0201
623.00,0.0205
622.00,0.0209
621.00,0.0212
620.00,0.0211
619.00,0.0206
618.00,0.0199
617.00,0.0193
616.00,0.0187
615.00,0.0182
614.00,0.0177
613.00,0.0173
612.00,0.0169
611.00,0.0166
610.00,0.0164
609.00,0.0162
608.00,0.0161
607.00,0.0161
606.00,0.0161
605.00,0.0161
604.00,0.0161
603.00,0.0161
602.00,0.0162
601.00,0.0164
600.00,0.0167
599.00,0.0169
598.00,0.0172
597.00,0.0174
596.00,0.0176
595.00,0.0178
594.00,0.0180
593.00,0.0183
592.00,0.0186
591.00,0.0189
590.00,0.0192
589.00,0.0194
588.00,0.0197
587.00,0.0200
586.00,0.0204
585.00,0.0209
584.00,0.0214
583.00,0.0220
582.00,0.0227
581.00,0.0236
580.00,0.0244
579.00,0.0254
578.00,0.0265
577.00,0.0277
576.00,0.0290
575.00,0.0303
574.00,0.0317
573.00,0.0333
572.00,0.0350
571.00,0.0365
570.00,0.0378
569.00,0.0389
568.00,0.0402
567.00,0.0416
566.00,0.0429
565.00,0.0443
564.00,0.0456
563.00,0.0468
562.00,0.0481
561.00,0.0495
560.00,0.0509
559.00,0.0523
558.00,0.0537
557.00,0.0551
556.00,0.0566
555.00,0.0581
554.00,0.0596
553.00,0.0613
552.00,0.0630
551.00,0.0649
550.00,0.0671
549.00,0.0694
548.00,0.0720
547.00,0.0748
546.00,0.0779
545.00,0.0812
544.00,0.0847
543.00,0.0883
542.00,0.0916
541.00,0.0945
540.00,0.0970
539.00,0.0986
538.00,0.0991
537.00,0.0982
536.00,0.0961
535.00,0.0927
534.00,0.0883
533.00,0.0834
532.00,0.0783
531.00,0.0732
530.00,0.0681
529.00,0.0633
528.00,0.0588
527.00,0.0546
526.00,0.0507
525.00,0.0471
524.00,0.0439
523.00,0.0413
522.00,0.0391
521.00,0.0372
520.00,0.0357
519.00,0.0343
518.00,0.0330
517.00,0.0319
516.00,0.0308
515.00,0.0297
514.00,0.0287
513.00,0.0276
512.00,0.0267
511.00,0.0258
510.00,0.0249
509.00,0.0240
508.00,0.0230
507.00,0.0222
506.00,0.0216
505.00,0.0212
504.00,0.0207
503.00,0.0201
502.00,0.0194
501.00,0.0188
500.00,0.0182
499.00,0.0178
498.00,0.0174
497.00,0.0172
496.00,0.0168
495.00,0.0164
494.00,0.0160
493.00,0.0156
492.00,0.0154
491.00,0.0153
490.00,0.0151
489.00,0.0149
488.00,0.0146
487.00,0.0144
486.00,0.0142
485.00,0.0141
484.00,0.0140
483.00,0.0138
482.00,0.0136
481.00,0.0133
480.00,0.0130
479.00,0.0128
478.00,0.0127
477.00,0.0127
476.00,0.0126
475.00,0.0124
474.00,0.0120
473.00,0.0118
472.00,0.0117
471.00,0.0118
470.00,0.0119
469.00,0.0119
468.00,0.0118
467.00,0.0116
466.00,0.0116
465.00,0.0117
464.00,0.0118
463.00,0.0119
462.00,0.0119
461.00,0.0119
460.00,0.0118
459.00,0.0118
458.00,0.0118
457.00,0.0119
456.00,0.0118
455.00,0.0117
454.00,0.0116
453.00,0.0115
452.00,0.0115
451.00,0.0114
450.00,0.0113
449.00,0.0111
448.00,0.0109
447.00,0.0108
446.00,0.0107
445.00,0.0107
444.00,0.0106
443.00,0.0106
442.00,0.0105
441.00,0.0103
440.00,0.0101
439.00,0.0099
438.00,0.0099
437.00,0.0100
436.00,0.0099
435.00,0.0098
434.00,0.0097
433.00,0.0098
432.00,0.0099
431.00,0.0099
430.00,0.0097
429.00,0.0096
428.00,0.0096
427.00,0.0097
426.00,0.0099
425.00,0.0100
424.00,0.0102
423.00,0.0103
422.00,0.0104
421.00,0.0102
420.00,0.0098
419.00,0.0096
418.00,0.0096
417.00,0.0097
416.00,0.0097
415.00,0.0096
414.00,0.0095
413.00,0.0093
412.00,0.0090
411.00,0.0090
410.00,0.0094
409.00,0.0098
408.00,0.0099
407.00,0.0097
406.00,0.0099
405.00,0.0104
404.00,0.0107
403.00,0.0101
402.00,0.0085
401.00,0.0064
400.00,0.0043
