Created as New Dataset,Sample 629 By YargerLab Date Friday, June 06 2025
cm-1,A
4000.00,0.0019
3999.00,0.0018
3998.00,0.0018
3997.00,0.0018
3996.00,0.0018
3995.00,0.0018
3994.00,0.0018
3993.00,0.0018
3992.00,0.0017
3991.00,0.0017
3990.00,0.0017
3989.00,0.0017
3988.00,0.0017
3987.00,0.0017
3986.00,0.0017
3985.00,0.0017
3984.00,0.0017
3983.00,0.0017
3982.00,0.0017
3981.00,0.0017
3980.00,0.0017
3979.00,0.0017
3978.00,0.0017
3977.00,0.0017
3976.00,0.0017
3975.00,0.0017
3974.00,0.0017
3973.00,0.0017
3972.00,0.0017
3971.00,0.0017
3970.00,0.0017
3969.00,0.0017
3968.00,0.0017
3967.00,0.0017
3966.00,0.0017
3965.00,0.0017
3964.00,0.0017
3963.00,0.0017
3962.00,0.0017
3961.00,0.0017
3960.00,0.0017
3959.00,0.0017
3958.00,0.0017
3957.00,0.0017
3956.00,0.0016
3955.00,0.0016
3954.00,0.0016
3953.00,0.0017
3952.00,0.0017
3951.00,0.0017
3950.00,0.0017
3949.00,0.0017
3948.00,0.0017
3947.00,0.0017
3946.00,0.0017
3945.00,0.0017
3944.00,0.0017
3943.00,0.0017
3942.00,0.0017
3941.00,0.0017
3940.00,0.0017
3939.00,0.0017
3938.00,0.0016
3937.00,0.0016
3936.00,0.0017
3935.00,0.0017
3934.00,0.0017
3933.00,0.0017
3932.00,0.0017
3931.00,0.0017
3930.00,0.0017
3929.00,0.0017
3928.00,0.0017
3927.00,0.0017
3926.00,0.0017
3925.00,0.0017
3924.00,0.0018
3923.00,0.0018
3922.00,0.0018
3921.00,0.0018
3920.00,0.0018
3919.00,0.0018
3918.00,0.0017
3917.00,0.0017
3916.00,0.0017
3915.00,0.0017
3914.00,0.0017
3913.00,0.0017
3912.00,0.0017
3911.00,0.0017
3910.00,0.0017
3909.00,0.0017
3908.00,0.0018
3907.00,0.0018
3906.00,0.0018
3905.00,0.0018
3904.00,0.0018
3903.00,0.0018
3902.00,0.0018
3901.00,0.0018
3900.00,0.0017
3899.00,0.0017
3898.00,0.0016
3897.00,0.0016
3896.00,0.0016
3895.00,0.0017
3894.00,0.0017
3893.00,0.0017
3892.00,0.0017
3891.00,0.0017
3890.00,0.0017
3889.00,0.0018
3888.00,0.0017
3887.00,0.0017
3886.00,0.0017
3885.00,0.0017
3884.00,0.0018
3883.00,0.0018
3882.00,0.0017
3881.00,0.0017
3880.00,0.0017
3879.00,0.0017
3878.00,0.0017
3877.00,0.0017
3876.00,0.0017
3875.00,0.0017
3874.00,0.0017
3873.00,0.0018
3872.00,0.0018
3871.00,0.0018
3870.00,0.0018
3869.00,0.0019
3868.00,0.0019
3867.00,0.0019
3866.00,0.0018
3865.00,0.0018
3864.00,0.0018
3863.00,0.0018
3862.00,0.0018
3861.00,0.0017
3860.00,0.0017
3859.00,0.0018
3858.00,0.0019
3857.00,0.0020
3856.00,0.0020
3855.00,0.0020
3854.00,0.0019
3853.00,0.0019
3852.00,0.0019
3851.00,0.0019
3850.00,0.0018
3849.00,0.0017
3848.00,0.0017
3847.00,0.0017
3846.00,0.0017
3845.00,0.0017
3844.00,0.0017
3843.00,0.0018
3842.00,0.0018
3841.00,0.0019
3840.00,0.0019
3839.00,0.0018
3838.00,0.0018
3837.00,0.0019
3836.00,0.0019
3835.00,0.0019
3834.00,0.0018
3833.00,0.0018
3832.00,0.0018
3831.00,0.0018
3830.00,0.0018
3829.00,0.0018
3828.00,0.0017
3827.00,0.0017
3826.00,0.0017
3825.00,0.0018
3824.00,0.0019
3823.00,0.0019
3822.00,0.0018
3821.00,0.0018
3820.00,0.0019
3819.00,0.0019
3818.00,0.0019
3817.00,0.0018
3816.00,0.0017
3815.00,0.0018
3814.00,0.0018
3813.00,0.0018
3812.00,0.0018
3811.00,0.0018
3810.00,0.0018
3809.00,0.0018
3808.00,0.0018
3807.00,0.0018
3806.00,0.0019
3805.00,0.0019
3804.00,0.0019
3803.00,0.0018
3802.00,0.0018
3801.00,0.0018
3800.00,0.0019
3799.00,0.0019
3798.00,0.0018
3797.00,0.0018
3796.00,0.0018
3795.00,0.0018
3794.00,0.0018
3793.00,0.0017
3792.00,0.0017
3791.00,0.0017
3790.00,0.0017
3789.00,0.0017
3788.00,0.0018
3787.00,0.0018
3786.00,0.0018
3785.00,0.0018
3784.00,0.0018
3783.00,0.0018
3782.00,0.0018
3781.00,0.0018
3780.00,0.0017
3779.00,0.0017
3778.00,0.0017
3777.00,0.0017
3776.00,0.0017
3775.00,0.0017
3774.00,0.0017
3773.00,0.0017
3772.00,0.0017
3771.00,0.0017
3770.00,0.0018
3769.00,0.0018
3768.00,0.0019
3767.00,0.0019
3766.00,0.0018
3765.00,0.0018
3764.00,0.0018
3763.00,0.0018
3762.00,0.0018
3761.00,0.0018
3760.00,0.0018
3759.00,0.0018
3758.00,0.0018
3757.00,0.0018
3756.00,0.0019
3755.00,0.0019
3754.00,0.0020
3753.00,0.0020
3752.00,0.0020
3751.00,0.0020
3750.00,0.0020
3749.00,0.0020
3748.00,0.0020
3747.00,0.0020
3746.00,0.0019
3745.00,0.0018
3744.00,0.0018
3743.00,0.0018
3742.00,0.0018
3741.00,0.0018
3740.00,0.0017
3739.00,0.0017
3738.00,0.0018
3737.00,0.0018
3736.00,0.0018
3735.00,0.0018
3734.00,0.0018
3733.00,0.0018
3732.00,0.0017
3731.00,0.0017
3730.00,0.0017
3729.00,0.0017
3728.00,0.0017
3727.00,0.0017
3726.00,0.0017
3725.00,0.0017
3724.00,0.0017
3723.00,0.0017
3722.00,0.0016
3721.00,0.0017
3720.00,0.0017
3719.00,0.0017
3718.00,0.0017
3717.00,0.0017
3716.00,0.0018
3715.00,0.0018
3714.00,0.0018
3713.00,0.0018
3712.00,0.0018
3711.00,0.0018
3710.00,0.0018
3709.00,0.0017
3708.00,0.0017
3707.00,0.0016
3706.00,0.0016
3705.00,0.0016
3704.00,0.0016
3703.00,0.0016
3702.00,0.0016
3701.00,0.0016
3700.00,0.0016
3699.00,0.0016
3698.00,0.0016
3697.00,0.0016
3696.00,0.0016
3695.00,0.0016
3694.00,0.0017
3693.00,0.0017
3692.00,0.0018
3691.00,0.0018
3690.00,0.0017
3689.00,0.0016
3688.00,0.0016
3687.00,0.0016
3686.00,0.0015
3685.00,0.0014
3684.00,0.0013
3683.00,0.0013
3682.00,0.0013
3681.00,0.0013
3680.00,0.0013
3679.00,0.0014
3678.00,0.0014
3677.00,0.0014
3676.00,0.0013
3675.00,0.0012
3674.00,0.0013
3673.00,0.0013
3672.00,0.0012
3671.00,0.0011
3670.00,0.0010
3669.00,0.0010
3668.00,0.0010
3667.00,0.0009
3666.00,0.0008
3665.00,0.0007
3664.00,0.0007
3663.00,0.0007
3662.00,0.0008
3661.00,0.0008
3660.00,0.0008
3659.00,0.0009
3658.00,0.0008
3657.00,0.0008
3656.00,0.0008
3655.00,0.0009
3654.00,0.0010
3653.00,0.0011
3652.00,0.0011
3651.00,0.0012
3650.00,0.0012
3649.00,0.0012
3648.00,0.0012
3647.00,0.0011
3646.00,0.0011
3645.00,0.0011
3644.00,0.0010
3643.00,0.0010
3642.00,0.0010
3641.00,0.0010
3640.00,0.0010
3639.00,0.0010
3638.00,0.0010
3637.00,0.0010
3636.00,0.0011
3635.00,0.0011
3634.00,0.0012
3633.00,0.0013
3632.00,0.0014
3631.00,0.0014
3630.00,0.0014
3629.00,0.0014
3628.00,0.0014
3627.00,0.0014
3626.00,0.0014
3625.00,0.0014
3624.00,0.0014
3623.00,0.0014
3622.00,0.0015
3621.00,0.0015
3620.00,0.0016
3619.00,0.0016
3618.00,0.0016
3617.00,0.0016
3616.00,0.0016
3615.00,0.0016
3614.00,0.0016
3613.00,0.0016
3612.00,0.0016
3611.00,0.0015
3610.00,0.0015
3609.00,0.0014
3608.00,0.0014
3607.00,0.0015
3606.00,0.0015
3605.00,0.0015
3604.00,0.0014
3603.00,0.0014
3602.00,0.0014
3601.00,0.0014
3600.00,0.0014
3599.00,0.0015
3598.00,0.0014
3597.00,0.0014
3596.00,0.0014
3595.00,0.0014
3594.00,0.0014
3593.00,0.0014
3592.00,0.0014
3591.00,0.0015
3590.00,0.0015
3589.00,0.0015
3588.00,0.0015
3587.00,0.0015
3586.00,0.0015
3585.00,0.0015
3584.00,0.0015
3583.00,0.0015
3582.00,0.0015
3581.00,0.0015
3580.00,0.0015
3579.00,0.0015
3578.00,0.0015
3577.00,0.0015
3576.00,0.0015
3575.00,0.0014
3574.00,0.0014
3573.00,0.0014
3572.00,0.0015
3571.00,0.0015
3570.00,0.0016
3569.00,0.0016
3568.00,0.0016
3567.00,0.0015
3566.00,0.0015
3565.00,0.0015
3564.00,0.0015
3563.00,0.0015
3562.00,0.0015
3561.00,0.0014
3560.00,0.0014
3559.00,0.0014
3558.00,0.0014
3557.00,0.0015
3556.00,0.0015
3555.00,0.0015
3554.00,0.0015
3553.00,0.0015
3552.00,0.0015
3551.00,0.0015
3550.00,0.0015
3549.00,0.0015
3548.00,0.0015
3547.00,0.0015
3546.00,0.0015
3545.00,0.0015
3544.00,0.0015
3543.00,0.0016
3542.00,0.0016
3541.00,0.0016
3540.00,0.0016
3539.00,0.0016
3538.00,0.0016
3537.00,0.0016
3536.00,0.0016
3535.00,0.0016
3534.00,0.0016
3533.00,0.0016
3532.00,0.0016
3531.00,0.0017
3530.00,0.0017
3529.00,0.0017
3528.00,0.0017
3527.00,0.0017
3526.00,0.0017
3525.00,0.0017
3524.00,0.0017
3523.00,0.0017
3522.00,0.0017
3521.00,0.0017
3520.00,0.0017
3519.00,0.0017
3518.00,0.0017
3517.00,0.0017
3516.00,0.0017
3515.00,0.0016
3514.00,0.0016
3513.00,0.0017
3512.00,0.0017
3511.00,0.0017
3510.00,0.0017
3509.00,0.0017
3508.00,0.0017
3507.00,0.0017
3506.00,0.0017
3505.00,0.0016
3504.00,0.0016
3503.00,0.0016
3502.00,0.0016
3501.00,0.0016
3500.00,0.0016
3499.00,0.0016
3498.00,0.0016
3497.00,0.0016
3496.00,0.0016
3495.00,0.0016
3494.00,0.0017
3493.00,0.0017
3492.00,0.0017
3491.00,0.0018
3490.00,0.0018
3489.00,0.0017
3488.00,0.0017
3487.00,0.0017
3486.00,0.0017
3485.00,0.0017
3484.00,0.0017
3483.00,0.0017
3482.00,0.0017
3481.00,0.0016
3480.00,0.0016
3479.00,0.0017
3478.00,0.0017
3477.00,0.0017
3476.00,0.0018
3475.00,0.0018
3474.00,0.0018
3473.00,0.0017
3472.00,0.0017
3471.00,0.0017
3470.00,0.0017
3469.00,0.0017
3468.00,0.0017
3467.00,0.0017
3466.00,0.0017
3465.00,0.0017
3464.00,0.0018
3463.00,0.0018
3462.00,0.0017
3461.00,0.0017
3460.00,0.0017
3459.00,0.0017
3458.00,0.0017
3457.00,0.0017
3456.00,0.0017
3455.00,0.0018
3454.00,0.0018
3453.00,0.0018
3452.00,0.0017
3451.00,0.0017
3450.00,0.0017
3449.00,0.0018
3448.00,0.0018
3447.00,0.0018
3446.00,0.0018
3445.00,0.0018
3444.00,0.0018
3443.00,0.0018
3442.00,0.0018
3441.00,0.0018
3440.00,0.0018
3439.00,0.0018
3438.00,0.0018
3437.00,0.0018
3436.00,0.0018
3435.00,0.0018
3434.00,0.0018
3433.00,0.0018
3432.00,0.0018
3431.00,0.0018
3430.00,0.0018
3429.00,0.0018
3428.00,0.0018
3427.00,0.0018
3426.00,0.0018
3425.00,0.0018
3424.00,0.0018
3423.00,0.0018
3422.00,0.0018
3421.00,0.0018
3420.00,0.0018
3419.00,0.0018
3418.00,0.0018
3417.00,0.0018
3416.00,0.0018
3415.00,0.0018
3414.00,0.0018
3413.00,0.0018
3412.00,0.0019
3411.00,0.0019
3410.00,0.0018
3409.00,0.0018
3408.00,0.0018
3407.00,0.0018
3406.00,0.0018
3405.00,0.0018
3404.00,0.0018
3403.00,0.0018
3402.00,0.0018
3401.00,0.0019
3400.00,0.0019
3399.00,0.0019
3398.00,0.0019
3397.00,0.0019
3396.00,0.0019
3395.00,0.0019
3394.00,0.0019
3393.00,0.0019
3392.00,0.0018
3391.00,0.0018
3390.00,0.0018
3389.00,0.0018
3388.00,0.0018
3387.00,0.0018
3386.00,0.0019
3385.00,0.0018
3384.00,0.0018
3383.00,0.0018
3382.00,0.0018
3381.00,0.0018
3380.00,0.0019
3379.00,0.0019
3378.00,0.0019
3377.00,0.0019
3376.00,0.0019
3375.00,0.0019
3374.00,0.0019
3373.00,0.0019
3372.00,0.0019
3371.00,0.0019
3370.00,0.0019
3369.00,0.0019
3368.00,0.0019
3367.00,0.0019
3366.00,0.0019
3365.00,0.0019
3364.00,0.0019
3363.00,0.0019
3362.00,0.0019
3361.00,0.0019
3360.00,0.0019
3359.00,0.0019
3358.00,0.0019
3357.00,0.0019
3356.00,0.0019
3355.00,0.0020
3354.00,0.0020
3353.00,0.0020
3352.00,0.0020
3351.00,0.0020
3350.00,0.0020
3349.00,0.0020
3348.00,0.0020
3347.00,0.0020
3346.00,0.0020
3345.00,0.0020
3344.00,0.0020
3343.00,0.0020
3342.00,0.0020
3341.00,0.0021
3340.00,0.0021
3339.00,0.0021
3338.00,0.0021
3337.00,0.0021
3336.00,0.0021
3335.00,0.0020
3334.00,0.0020
3333.00,0.0020
3332.00,0.0021
3331.00,0.0021
3330.00,0.0021
3329.00,0.0021
3328.00,0.0021
3327.00,0.0020
3326.00,0.0020
3325.00,0.0020
3324.00,0.0020
3323.00,0.0020
3322.00,0.0020
3321.00,0.0019
3320.00,0.0019
3319.00,0.0019
3318.00,0.0020
3317.00,0.0020
3316.00,0.0020
3315.00,0.0020
3314.00,0.0020
3313.00,0.0020
3312.00,0.0020
3311.00,0.0020
3310.00,0.0019
3309.00,0.0019
3308.00,0.0019
3307.00,0.0019
3306.00,0.0020
3305.00,0.0020
3304.00,0.0020
3303.00,0.0020
3302.00,0.0020
3301.00,0.0019
3300.00,0.0019
3299.00,0.0019
3298.00,0.0019
3297.00,0.0019
3296.00,0.0019
3295.00,0.0019
3294.00,0.0019
3293.00,0.0019
3292.00,0.0018
3291.00,0.0018
3290.00,0.0018
3289.00,0.0019
3288.00,0.0019
3287.00,0.0019
3286.00,0.0019
3285.00,0.0019
3284.00,0.0019
3283.00,0.0019
3282.00,0.0019
3281.00,0.0019
3280.00,0.0019
3279.00,0.0019
3278.00,0.0019
3277.00,0.0019
3276.00,0.0018
3275.00,0.0018
3274.00,0.0018
3273.00,0.0018
3272.00,0.0018
3271.00,0.0018
3270.00,0.0018
3269.00,0.0018
3268.00,0.0018
3267.00,0.0018
3266.00,0.0018
3265.00,0.0018
3264.00,0.0018
3263.00,0.0018
3262.00,0.0018
3261.00,0.0018
3260.00,0.0018
3259.00,0.0018
3258.00,0.0017
3257.00,0.0017
3256.00,0.0017
3255.00,0.0017
3254.00,0.0017
3253.00,0.0017
3252.00,0.0017
3251.00,0.0017
3250.00,0.0017
3249.00,0.0017
3248.00,0.0017
3247.00,0.0017
3246.00,0.0017
3245.00,0.0017
3244.00,0.0017
3243.00,0.0017
3242.00,0.0017
3241.00,0.0017
3240.00,0.0017
3239.00,0.0017
3238.00,0.0017
3237.00,0.0017
3236.00,0.0017
3235.00,0.0017
3234.00,0.0017
3233.00,0.0017
3232.00,0.0017
3231.00,0.0017
3230.00,0.0017
3229.00,0.0017
3228.00,0.0016
3227.00,0.0016
3226.00,0.0016
3225.00,0.0016
3224.00,0.0016
3223.00,0.0016
3222.00,0.0016
3221.00,0.0016
3220.00,0.0016
3219.00,0.0016
3218.00,0.0016
3217.00,0.0017
3216.00,0.0017
3215.00,0.0017
3214.00,0.0017
3213.00,0.0017
3212.00,0.0017
3211.00,0.0017
3210.00,0.0017
3209.00,0.0018
3208.00,0.0018
3207.00,0.0018
3206.00,0.0017
3205.00,0.0017
3204.00,0.0017
3203.00,0.0017
3202.00,0.0018
3201.00,0.0018
3200.00,0.0018
3199.00,0.0018
3198.00,0.0017
3197.00,0.0017
3196.00,0.0017
3195.00,0.0017
3194.00,0.0017
3193.00,0.0017
3192.00,0.0016
3191.00,0.0016
3190.00,0.0016
3189.00,0.0016
3188.00,0.0017
3187.00,0.0017
3186.00,0.0017
3185.00,0.0017
3184.00,0.0017
3183.00,0.0017
3182.00,0.0016
3181.00,0.0016
3180.00,0.0016
3179.00,0.0016
3178.00,0.0016
3177.00,0.0016
3176.00,0.0016
3175.00,0.0016
3174.00,0.0017
3173.00,0.0017
3172.00,0.0017
3171.00,0.0017
3170.00,0.0017
3169.00,0.0017
3168.00,0.0017
3167.00,0.0018
3166.00,0.0018
3165.00,0.0018
3164.00,0.0019
3163.00,0.0019
3162.00,0.0019
3161.00,0.0019
3160.00,0.0019
3159.00,0.0018
3158.00,0.0018
3157.00,0.0018
3156.00,0.0018
3155.00,0.0018
3154.00,0.0017
3153.00,0.0017
3152.00,0.0017
3151.00,0.0017
3150.00,0.0017
3149.00,0.0017
3148.00,0.0017
3147.00,0.0017
3146.00,0.0017
3145.00,0.0017
3144.00,0.0017
3143.00,0.0017
3142.00,0.0017
3141.00,0.0017
3140.00,0.0017
3139.00,0.0017
3138.00,0.0017
3137.00,0.0017
3136.00,0.0017
3135.00,0.0017
3134.00,0.0017
3133.00,0.0017
3132.00,0.0018
3131.00,0.0018
3130.00,0.0018
3129.00,0.0018
3128.00,0.0018
3127.00,0.0018
3126.00,0.0018
3125.00,0.0018
3124.00,0.0018
3123.00,0.0019
3122.00,0.0019
3121.00,0.0020
3120.00,0.0020
3119.00,0.0021
3118.00,0.0021
3117.00,0.0022
3116.00,0.0023
3115.00,0.0024
3114.00,0.0025
3113.00,0.0027
3112.00,0.0029
3111.00,0.0031
3110.00,0.0034
3109.00,0.0036
3108.00,0.0039
3107.00,0.0041
3106.00,0.0043
3105.00,0.0045
3104.00,0.0046
3103.00,0.0046
3102.00,0.0046
3101.00,0.0046
3100.00,0.0045
3099.00,0.0044
3098.00,0.0044
3097.00,0.0044
3096.00,0.0044
3095.00,0.0045
3094.00,0.0047
3093.00,0.0050
3092.00,0.0053
3091.00,0.0058
3090.00,0.0063
3089.00,0.0070
3088.00,0.0078
3087.00,0.0086
3086.00,0.0095
3085.00,0.0102
3084.00,0.0108
3083.00,0.0111
3082.00,0.0112
3081.00,0.0110
3080.00,0.0107
3079.00,0.0102
3078.00,0.0097
3077.00,0.0092
3076.00,0.0087
3075.00,0.0084
3074.00,0.0083
3073.00,0.0082
3072.00,0.0083
3071.00,0.0085
3070.00,0.0089
3069.00,0.0094
3068.00,0.0100
3067.00,0.0107
3066.00,0.0115
3065.00,0.0124
3064.00,0.0133
3063.00,0.0141
3062.00,0.0148
3061.00,0.0153
3060.00,0.0155
3059.00,0.0155
3058.00,0.0151
3057.00,0.0145
3056.00,0.0137
3055.00,0.0128
3054.00,0.0119
3053.00,0.0111
3052.00,0.0103
3051.00,0.0097
3050.00,0.0091
3049.00,0.0087
3048.00,0.0083
3047.00,0.0081
3046.00,0.0080
3045.00,0.0080
3044.00,0.0080
3043.00,0.0082
3042.00,0.0085
3041.00,0.0088
3040.00,0.0093
3039.00,0.0098
3038.00,0.0106
3037.00,0.0115
3036.00,0.0126
3035.00,0.0138
3034.00,0.0153
3033.00,0.0170
3032.00,0.0190
3031.00,0.0210
3030.00,0.0232
3029.00,0.0253
3028.00,0.0271
3027.00,0.0286
3026.00,0.0295
3025.00,0.0296
3024.00,0.0290
3023.00,0.0276
3022.00,0.0256
3021.00,0.0232
3020.00,0.0207
3019.00,0.0182
3018.00,0.0159
3017.00,0.0138
3016.00,0.0121
3015.00,0.0106
3014.00,0.0094
3013.00,0.0084
3012.00,0.0077
3011.00,0.0071
3010.00,0.0066
3009.00,0.0064
3008.00,0.0062
3007.00,0.0061
3006.00,0.0061
3005.00,0.0061
3004.00,0.0061
3003.00,0.0061
3002.00,0.0060
3001.00,0.0057
3000.00,0.0053
2999.00,0.0047
2998.00,0.0041
2997.00,0.0033
2996.00,0.0027
2995.00,0.0020
2994.00,0.0015
2993.00,0.0010
2992.00,0.0006
2991.00,0.0003
2990.00,0.0000
2989.00,-0.0002
2988.00,-0.0004
2987.00,-0.0006
2986.00,-0.0010
2985.00,-0.0015
2984.00,-0.0023
2983.00,-0.0030
2982.00,-0.0035
2981.00,-0.0037
2980.00,-0.0035
2979.00,-0.0031
2978.00,-0.0027
2977.00,-0.0023
2976.00,-0.0020
2975.00,-0.0018
2974.00,-0.0018
2973.00,-0.0018
2972.00,-0.0018
2971.00,-0.0017
2970.00,-0.0014
2969.00,-0.0010
2968.00,-0.0006
2967.00,-0.0002
2966.00,0.0001
2965.00,0.0005
2964.00,0.0008
2963.00,0.0012
2962.00,0.0016
2961.00,0.0020
2960.00,0.0024
2959.00,0.0028
2958.00,0.0032
2957.00,0.0036
2956.00,0.0040
2955.00,0.0045
2954.00,0.0050
2953.00,0.0055
2952.00,0.0061
2951.00,0.0067
2950.00,0.0074
2949.00,0.0080
2948.00,0.0087
2947.00,0.0095
2946.00,0.0103
2945.00,0.0111
2944.00,0.0120
2943.00,0.0129
2942.00,0.0138
2941.00,0.0148
2940.00,0.0157
2939.00,0.0168
2938.00,0.0179
2937.00,0.0190
2936.00,0.0202
2935.00,0.0214
2934.00,0.0227
2933.00,0.0239
2932.00,0.0251
2931.00,0.0263
2930.00,0.0275
2929.00,0.0286
2928.00,0.0296
2927.00,0.0305
2926.00,0.0312
2925.00,0.0318
2924.00,0.0323
2923.00,0.0326
2922.00,0.0328
2921.00,0.0328
2920.00,0.0327
2919.00,0.0324
2918.00,0.0321
2917.00,0.0316
2916.00,0.0310
2915.00,0.0304
2914.00,0.0297
2913.00,0.0289
2912.00,0.0281
2911.00,0.0273
2910.00,0.0264
2909.00,0.0256
2908.00,0.0247
2907.00,0.0238
2906.00,0.0229
2905.00,0.0220
2904.00,0.0211
2903.00,0.0202
2902.00,0.0193
2901.00,0.0183
2900.00,0.0175
2899.00,0.0166
2898.00,0.0158
2897.00,0.0150
2896.00,0.0143
2895.00,0.0136
2894.00,0.0130
2893.00,0.0125
2892.00,0.0120
2891.00,0.0115
2890.00,0.0111
2889.00,0.0107
2888.00,0.0104
2887.00,0.0101
2886.00,0.0098
2885.00,0.0095
2884.00,0.0093
2883.00,0.0090
2882.00,0.0088
2881.00,0.0087
2880.00,0.0086
2879.00,0.0084
2878.00,0.0083
2877.00,0.0082
2876.00,0.0080
2875.00,0.0079
2874.00,0.0077
2873.00,0.0076
2872.00,0.0075
2871.00,0.0075
2870.00,0.0074
2869.00,0.0074
2868.00,0.0075
2867.00,0.0077
2866.00,0.0079
2865.00,0.0081
2864.00,0.0084
2863.00,0.0088
2862.00,0.0091
2861.00,0.0096
2860.00,0.0101
2859.00,0.0106
2858.00,0.0112
2857.00,0.0118
2856.00,0.0123
2855.00,0.0129
2854.00,0.0134
2853.00,0.0138
2852.00,0.0143
2851.00,0.0146
2850.00,0.0148
2849.00,0.0148
2848.00,0.0148
2847.00,0.0146
2846.00,0.0143
2845.00,0.0138
2844.00,0.0132
2843.00,0.0125
2842.00,0.0116
2841.00,0.0107
2840.00,0.0098
2839.00,0.0089
2838.00,0.0081
2837.00,0.0074
2836.00,0.0068
2835.00,0.0062
2834.00,0.0057
2833.00,0.0053
2832.00,0.0050
2831.00,0.0047
2830.00,0.0045
2829.00,0.0043
2828.00,0.0042
2827.00,0.0041
2826.00,0.0040
2825.00,0.0039
2824.00,0.0038
2823.00,0.0037
2822.00,0.0037
2821.00,0.0036
2820.00,0.0036
2819.00,0.0035
2818.00,0.0034
2817.00,0.0034
2816.00,0.0034
2815.00,0.0034
2814.00,0.0034
2813.00,0.0034
2812.00,0.0034
2811.00,0.0034
2810.00,0.0033
2809.00,0.0033
2808.00,0.0033
2807.00,0.0032
2806.00,0.0032
2805.00,0.0032
2804.00,0.0031
2803.00,0.0031
2802.00,0.0031
2801.00,0.0031
2800.00,0.0031
2799.00,0.0030
2798.00,0.0030
2797.00,0.0029
2796.00,0.0029
2795.00,0.0029
2794.00,0.0028
2793.00,0.0028
2792.00,0.0028
2791.00,0.0028
2790.00,0.0028
2789.00,0.0028
2788.00,0.0028
2787.00,0.0028
2786.00,0.0028
2785.00,0.0028
2784.00,0.0028
2783.00,0.0028
2782.00,0.0027
2781.00,0.0027
2780.00,0.0027
2779.00,0.0027
2778.00,0.0027
2777.00,0.0027
2776.00,0.0027
2775.00,0.0027
2774.00,0.0027
2773.00,0.0027
2772.00,0.0026
2771.00,0.0026
2770.00,0.0026
2769.00,0.0025
2768.00,0.0025
2767.00,0.0025
2766.00,0.0025
2765.00,0.0025
2764.00,0.0025
2763.00,0.0025
2762.00,0.0025
2761.00,0.0025
2760.00,0.0025
2759.00,0.0025
2758.00,0.0024
2757.00,0.0024
2756.00,0.0025
2755.00,0.0025
2754.00,0.0024
2753.00,0.0024
2752.00,0.0024
2751.00,0.0024
2750.00,0.0024
2749.00,0.0024
2748.00,0.0024
2747.00,0.0024
2746.00,0.0024
2745.00,0.0024
2744.00,0.0024
2743.00,0.0024
2742.00,0.0024
2741.00,0.0024
2740.00,0.0024
2739.00,0.0024
2738.00,0.0024
2737.00,0.0024
2736.00,0.0024
2735.00,0.0024
2734.00,0.0025
2733.00,0.0025
2732.00,0.0025
2731.00,0.0025
2730.00,0.0025
2729.00,0.0025
2728.00,0.0025
2727.00,0.0025
2726.00,0.0025
2725.00,0.0025
2724.00,0.0025
2723.00,0.0025
2722.00,0.0025
2721.00,0.0025
2720.00,0.0025
2719.00,0.0025
2718.00,0.0025
2717.00,0.0025
2716.00,0.0025
2715.00,0.0025
2714.00,0.0025
2713.00,0.0025
2712.00,0.0025
2711.00,0.0025
2710.00,0.0025
2709.00,0.0025
2708.00,0.0025
2707.00,0.0025
2706.00,0.0025
2705.00,0.0025
2704.00,0.0025
2703.00,0.0024
2702.00,0.0024
2701.00,0.0024
2700.00,0.0025
2699.00,0.0025
2698.00,0.0025
2697.00,0.0025
2696.00,0.0025
2695.00,0.0025
2694.00,0.0025
2693.00,0.0025
2692.00,0.0025
2691.00,0.0025
2690.00,0.0025
2689.00,0.0025
2688.00,0.0025
2687.00,0.0025
2686.00,0.0025
2685.00,0.0025
2684.00,0.0025
2683.00,0.0025
2682.00,0.0025
2681.00,0.0025
2680.00,0.0025
2679.00,0.0024
2678.00,0.0024
2677.00,0.0024
2676.00,0.0024
2675.00,0.0024
2674.00,0.0024
2673.00,0.0024
2672.00,0.0024
2671.00,0.0024
2670.00,0.0024
2669.00,0.0024
2668.00,0.0024
2667.00,0.0025
2666.00,0.0025
2665.00,0.0026
2664.00,0.0026
2663.00,0.0027
2662.00,0.0027
2661.00,0.0028
2660.00,0.0028
2659.00,0.0028
2658.00,0.0028
2657.00,0.0029
2656.00,0.0029
2655.00,0.0029
2654.00,0.0029
2653.00,0.0029
2652.00,0.0029
2651.00,0.0029
2650.00,0.0029
2649.00,0.0029
2648.00,0.0029
2647.00,0.0029
2646.00,0.0029
2645.00,0.0029
2644.00,0.0029
2643.00,0.0029
2642.00,0.0029
2641.00,0.0029
2640.00,0.0029
2639.00,0.0029
2638.00,0.0029
2637.00,0.0030
2636.00,0.0030
2635.00,0.0030
2634.00,0.0030
2633.00,0.0030
2632.00,0.0030
2631.00,0.0030
2630.00,0.0030
2629.00,0.0030
2628.00,0.0030
2627.00,0.0029
2626.00,0.0029
2625.00,0.0029
2624.00,0.0028
2623.00,0.0028
2622.00,0.0028
2621.00,0.0028
2620.00,0.0027
2619.00,0.0027
2618.00,0.0027
2617.00,0.0027
2616.00,0.0027
2615.00,0.0027
2614.00,0.0027
2613.00,0.0027
2612.00,0.0027
2611.00,0.0027
2610.00,0.0027
2609.00,0.0027
2608.00,0.0027
2607.00,0.0027
2606.00,0.0027
2605.00,0.0027
2604.00,0.0028
2603.00,0.0028
2602.00,0.0028
2601.00,0.0027
2600.00,0.0027
2599.00,0.0027
2598.00,0.0026
2597.00,0.0026
2596.00,0.0026
2595.00,0.0025
2594.00,0.0025
2593.00,0.0025
2592.00,0.0025
2591.00,0.0024
2590.00,0.0024
2589.00,0.0024
2588.00,0.0025
2587.00,0.0025
2586.00,0.0025
2585.00,0.0025
2584.00,0.0025
2583.00,0.0025
2582.00,0.0025
2581.00,0.0025
2580.00,0.0025
2579.00,0.0025
2578.00,0.0025
2577.00,0.0024
2576.00,0.0024
2575.00,0.0024
2574.00,0.0024
2573.00,0.0024
2572.00,0.0023
2571.00,0.0023
2570.00,0.0023
2569.00,0.0023
2568.00,0.0023
2567.00,0.0022
2566.00,0.0022
2565.00,0.0022
2564.00,0.0022
2563.00,0.0022
2562.00,0.0021
2561.00,0.0021
2560.00,0.0021
2559.00,0.0021
2558.00,0.0021
2557.00,0.0021
2556.00,0.0021
2555.00,0.0022
2554.00,0.0022
2553.00,0.0022
2552.00,0.0022
2551.00,0.0021
2550.00,0.0021
2549.00,0.0021
2548.00,0.0021
2547.00,0.0021
2546.00,0.0021
2545.00,0.0021
2544.00,0.0021
2543.00,0.0021
2542.00,0.0021
2541.00,0.0021
2540.00,0.0021
2539.00,0.0021
2538.00,0.0020
2537.00,0.0020
2536.00,0.0020
2535.00,0.0020
2534.00,0.0021
2533.00,0.0021
2532.00,0.0021
2531.00,0.0021
2530.00,0.0021
2529.00,0.0020
2528.00,0.0020
2527.00,0.0020
2526.00,0.0020
2525.00,0.0020
2524.00,0.0020
2523.00,0.0020
2522.00,0.0020
2521.00,0.0020
2520.00,0.0020
2519.00,0.0020
2518.00,0.0020
2517.00,0.0020
2516.00,0.0020
2515.00,0.0020
2514.00,0.0020
2513.00,0.0020
2512.00,0.0020
2511.00,0.0020
2510.00,0.0020
2509.00,0.0020
2508.00,0.0020
2507.00,0.0020
2506.00,0.0019
2505.00,0.0019
2504.00,0.0019
2503.00,0.0019
2502.00,0.0019
2501.00,0.0019
2500.00,0.0020
2499.00,0.0020
2498.00,0.0020
2497.00,0.0020
2496.00,0.0019
2495.00,0.0019
2494.00,0.0019
2493.00,0.0020
2492.00,0.0020
2491.00,0.0020
2490.00,0.0020
2489.00,0.0020
2488.00,0.0019
2487.00,0.0019
2486.00,0.0019
2485.00,0.0019
2484.00,0.0019
2483.00,0.0019
2482.00,0.0018
2481.00,0.0018
2480.00,0.0018
2479.00,0.0018
2478.00,0.0018
2477.00,0.0018
2476.00,0.0018
2475.00,0.0018
2474.00,0.0018
2473.00,0.0018
2472.00,0.0018
2471.00,0.0018
2470.00,0.0018
2469.00,0.0019
2468.00,0.0019
2467.00,0.0019
2466.00,0.0018
2465.00,0.0018
2464.00,0.0018
2463.00,0.0018
2462.00,0.0018
2461.00,0.0018
2460.00,0.0018
2459.00,0.0019
2458.00,0.0019
2457.00,0.0019
2456.00,0.0019
2455.00,0.0019
2454.00,0.0019
2453.00,0.0019
2452.00,0.0019
2451.00,0.0019
2450.00,0.0018
2449.00,0.0019
2448.00,0.0019
2447.00,0.0019
2446.00,0.0018
2445.00,0.0018
2444.00,0.0018
2443.00,0.0017
2442.00,0.0017
2441.00,0.0017
2440.00,0.0017
2439.00,0.0017
2438.00,0.0017
2437.00,0.0017
2436.00,0.0017
2435.00,0.0017
2434.00,0.0016
2433.00,0.0016
2432.00,0.0016
2431.00,0.0015
2430.00,0.0015
2429.00,0.0016
2428.00,0.0016
2427.00,0.0016
2426.00,0.0016
2425.00,0.0015
2424.00,0.0015
2423.00,0.0015
2422.00,0.0015
2421.00,0.0015
2420.00,0.0015
2419.00,0.0015
2418.00,0.0015
2417.00,0.0015
2416.00,0.0015
2415.00,0.0015
2414.00,0.0015
2413.00,0.0016
2412.00,0.0016
2411.00,0.0016
2410.00,0.0015
2409.00,0.0015
2408.00,0.0015
2407.00,0.0014
2406.00,0.0015
2405.00,0.0014
2404.00,0.0014
2403.00,0.0014
2402.00,0.0014
2401.00,0.0014
2400.00,0.0014
2399.00,0.0014
2398.00,0.0013
2397.00,0.0013
2396.00,0.0013
2395.00,0.0014
2394.00,0.0014
2393.00,0.0014
2392.00,0.0013
2391.00,0.0013
2390.00,0.0013
2389.00,0.0013
2388.00,0.0013
2387.00,0.0013
2386.00,0.0013
2385.00,0.0013
2384.00,0.0013
2383.00,0.0013
2382.00,0.0013
2381.00,0.0013
2380.00,0.0013
2379.00,0.0013
2378.00,0.0014
2377.00,0.0014
2376.00,0.0014
2375.00,0.0014
2374.00,0.0014
2373.00,0.0014
2372.00,0.0013
2371.00,0.0013
2370.00,0.0013
2369.00,0.0013
2368.00,0.0013
2367.00,0.0014
2366.00,0.0014
2365.00,0.0014
2364.00,0.0014
2363.00,0.0014
2362.00,0.0015
2361.00,0.0016
2360.00,0.0017
2359.00,0.0017
2358.00,0.0017
2357.00,0.0017
2356.00,0.0017
2355.00,0.0017
2354.00,0.0017
2353.00,0.0017
2352.00,0.0017
2351.00,0.0018
2350.00,0.0018
2349.00,0.0018
2348.00,0.0019
2347.00,0.0019
2346.00,0.0020
2345.00,0.0021
2344.00,0.0021
2343.00,0.0021
2342.00,0.0020
2341.00,0.0020
2340.00,0.0021
2339.00,0.0022
2338.00,0.0022
2337.00,0.0023
2336.00,0.0023
2335.00,0.0023
2334.00,0.0022
2333.00,0.0022
2332.00,0.0022
2331.00,0.0022
2330.00,0.0022
2329.00,0.0023
2328.00,0.0026
2327.00,0.0030
2326.00,0.0033
2325.00,0.0034
2324.00,0.0034
2323.00,0.0033
2322.00,0.0031
2321.00,0.0029
2320.00,0.0028
2319.00,0.0027
2318.00,0.0026
2317.00,0.0026
2316.00,0.0026
2315.00,0.0026
2314.00,0.0026
2313.00,0.0026
2312.00,0.0026
2311.00,0.0026
2310.00,0.0025
2309.00,0.0025
2308.00,0.0025
2307.00,0.0024
2306.00,0.0024
2305.00,0.0024
2304.00,0.0024
2303.00,0.0023
2302.00,0.0023
2301.00,0.0023
2300.00,0.0023
2299.00,0.0023
2298.00,0.0024
2297.00,0.0024
2296.00,0.0025
2295.00,0.0025
2294.00,0.0026
2293.00,0.0027
2292.00,0.0027
2291.00,0.0028
2290.00,0.0029
2289.00,0.0029
2288.00,0.0029
2287.00,0.0029
2286.00,0.0029
2285.00,0.0029
2284.00,0.0028
2283.00,0.0027
2282.00,0.0026
2281.00,0.0025
2280.00,0.0025
2279.00,0.0025
2278.00,0.0024
2277.00,0.0024
2276.00,0.0024
2275.00,0.0023
2274.00,0.0023
2273.00,0.0023
2272.00,0.0023
2271.00,0.0023
2270.00,0.0022
2269.00,0.0022
2268.00,0.0021
2267.00,0.0021
2266.00,0.0020
2265.00,0.0020
2264.00,0.0020
2263.00,0.0020
2262.00,0.0020
2261.00,0.0021
2260.00,0.0021
2259.00,0.0021
2258.00,0.0020
2257.00,0.0019
2256.00,0.0019
2255.00,0.0018
2254.00,0.0018
2253.00,0.0018
2252.00,0.0019
2251.00,0.0019
2250.00,0.0019
2249.00,0.0020
2248.00,0.0020
2247.00,0.0020
2246.00,0.0020
2245.00,0.0020
2244.00,0.0020
2243.00,0.0020
2242.00,0.0020
2241.00,0.0019
2240.00,0.0019
2239.00,0.0019
2238.00,0.0018
2237.00,0.0017
2236.00,0.0016
2235.00,0.0016
2234.00,0.0016
2233.00,0.0017
2232.00,0.0017
2231.00,0.0017
2230.00,0.0017
2229.00,0.0017
2228.00,0.0016
2227.00,0.0017
2226.00,0.0017
2225.00,0.0018
2224.00,0.0018
2223.00,0.0018
2222.00,0.0017
2221.00,0.0017
2220.00,0.0016
2219.00,0.0015
2218.00,0.0014
2217.00,0.0014
2216.00,0.0014
2215.00,0.0015
2214.00,0.0016
2213.00,0.0017
2212.00,0.0017
2211.00,0.0016
2210.00,0.0015
2209.00,0.0015
2208.00,0.0015
2207.00,0.0016
2206.00,0.0016
2205.00,0.0016
2204.00,0.0016
2203.00,0.0016
2202.00,0.0016
2201.00,0.0016
2200.00,0.0016
2199.00,0.0016
2198.00,0.0015
2197.00,0.0015
2196.00,0.0015
2195.00,0.0015
2194.00,0.0016
2193.00,0.0017
2192.00,0.0017
2191.00,0.0018
2190.00,0.0019
2189.00,0.0020
2188.00,0.0020
2187.00,0.0021
2186.00,0.0020
2185.00,0.0019
2184.00,0.0017
2183.00,0.0015
2182.00,0.0014
2181.00,0.0014
2180.00,0.0014
2179.00,0.0013
2178.00,0.0012
2177.00,0.0009
2176.00,0.0007
2175.00,0.0007
2174.00,0.0008
2173.00,0.0011
2172.00,0.0015
2171.00,0.0019
2170.00,0.0022
2169.00,0.0024
2168.00,0.0025
2167.00,0.0025
2166.00,0.0026
2165.00,0.0028
2164.00,0.0031
2163.00,0.0031
2162.00,0.0024
2161.00,0.0011
2160.00,-0.0005
2159.00,-0.0018
2158.00,-0.0023
2157.00,-0.0021
2156.00,-0.0016
2155.00,-0.0012
2154.00,-0.0010
2153.00,-0.0009
2152.00,-0.0008
2151.00,-0.0007
2150.00,-0.0007
2149.00,-0.0007
2148.00,-0.0006
2147.00,-0.0006
2146.00,-0.0006
2145.00,-0.0005
2144.00,-0.0005
2143.00,-0.0004
2142.00,-0.0004
2141.00,-0.0004
2140.00,-0.0005
2139.00,-0.0006
2138.00,-0.0007
2137.00,-0.0008
2136.00,-0.0009
2135.00,-0.0010
2134.00,-0.0010
2133.00,-0.0010
2132.00,-0.0009
2131.00,-0.0007
2130.00,-0.0005
2129.00,-0.0003
2128.00,-0.0002
2127.00,-0.0000
2126.00,0.0001
2125.00,0.0003
2124.00,0.0004
2123.00,0.0005
2122.00,0.0005
2121.00,0.0006
2120.00,0.0006
2119.00,0.0007
2118.00,0.0008
2117.00,0.0009
2116.00,0.0010
2115.00,0.0012
2114.00,0.0012
2113.00,0.0013
2112.00,0.0013
2111.00,0.0012
2110.00,0.0012
2109.00,0.0012
2108.00,0.0013
2107.00,0.0013
2106.00,0.0013
2105.00,0.0012
2104.00,0.0011
2103.00,0.0011
2102.00,0.0011
2101.00,0.0011
2100.00,0.0011
2099.00,0.0011
2098.00,0.0010
2097.00,0.0008
2096.00,0.0006
2095.00,0.0005
2094.00,0.0006
2093.00,0.0006
2092.00,0.0008
2091.00,0.0009
2090.00,0.0010
2089.00,0.0010
2088.00,0.0011
2087.00,0.0012
2086.00,0.0012
2085.00,0.0012
2084.00,0.0012
2083.00,0.0013
2082.00,0.0013
2081.00,0.0014
2080.00,0.0014
2079.00,0.0014
2078.00,0.0013
2077.00,0.0013
2076.00,0.0012
2075.00,0.0012
2074.00,0.0012
2073.00,0.0011
2072.00,0.0011
2071.00,0.0010
2070.00,0.0010
2069.00,0.0010
2068.00,0.0010
2067.00,0.0009
2066.00,0.0009
2065.00,0.0008
2064.00,0.0007
2063.00,0.0007
2062.00,0.0007
2061.00,0.0007
2060.00,0.0008
2059.00,0.0009
2058.00,0.0010
2057.00,0.0010
2056.00,0.0010
2055.00,0.0010
2054.00,0.0012
2053.00,0.0016
2052.00,0.0019
2051.00,0.0020
2050.00,0.0017
2049.00,0.0014
2048.00,0.0012
2047.00,0.0011
2046.00,0.0011
2045.00,0.0011
2044.00,0.0012
2043.00,0.0012
2042.00,0.0011
2041.00,0.0010
2040.00,0.0009
2039.00,0.0009
2038.00,0.0010
2037.00,0.0011
2036.00,0.0010
2035.00,0.0008
2034.00,0.0006
2033.00,0.0004
2032.00,0.0003
2031.00,0.0002
2030.00,0.0001
2029.00,0.0001
2028.00,0.0003
2027.00,0.0004
2026.00,0.0005
2025.00,0.0005
2024.00,0.0005
2023.00,0.0005
2022.00,0.0004
2021.00,0.0003
2020.00,0.0002
2019.00,0.0001
2018.00,0.0000
2017.00,0.0000
2016.00,0.0001
2015.00,0.0002
2014.00,0.0002
2013.00,0.0002
2012.00,0.0003
2011.00,0.0003
2010.00,0.0002
2009.00,0.0001
2008.00,-0.0001
2007.00,-0.0003
2006.00,-0.0003
2005.00,-0.0002
2004.00,-0.0000
2003.00,0.0001
2002.00,0.0003
2001.00,0.0004
2000.00,0.0004
1999.00,0.0004
1998.00,0.0005
1997.00,0.0006
1996.00,0.0007
1995.00,0.0009
1994.00,0.0011
1993.00,0.0012
1992.00,0.0014
1991.00,0.0015
1990.00,0.0015
1989.00,0.0015
1988.00,0.0016
1987.00,0.0017
1986.00,0.0018
1985.00,0.0019
1984.00,0.0021
1983.00,0.0024
1982.00,0.0027
1981.00,0.0027
1980.00,0.0025
1979.00,0.0019
1978.00,0.0013
1977.00,0.0009
1976.00,0.0006
1975.00,0.0005
1974.00,0.0005
1973.00,0.0005
1972.00,0.0006
1971.00,0.0008
1970.00,0.0010
1969.00,0.0012
1968.00,0.0014
1967.00,0.0016
1966.00,0.0018
1965.00,0.0019
1964.00,0.0019
1963.00,0.0019
1962.00,0.0017
1961.00,0.0016
1960.00,0.0017
1959.00,0.0018
1958.00,0.0021
1957.00,0.0023
1956.00,0.0024
1955.00,0.0026
1954.00,0.0028
1953.00,0.0030
1952.00,0.0033
1951.00,0.0035
1950.00,0.0037
1949.00,0.0039
1948.00,0.0040
1947.00,0.0042
1946.00,0.0043
1945.00,0.0043
1944.00,0.0043
1943.00,0.0043
1942.00,0.0043
1941.00,0.0043
1940.00,0.0042
1939.00,0.0041
1938.00,0.0039
1937.00,0.0036
1936.00,0.0034
1935.00,0.0032
1934.00,0.0029
1933.00,0.0026
1932.00,0.0024
1931.00,0.0022
1930.00,0.0020
1929.00,0.0019
1928.00,0.0017
1927.00,0.0016
1926.00,0.0015
1925.00,0.0015
1924.00,0.0014
1923.00,0.0015
1922.00,0.0015
1921.00,0.0015
1920.00,0.0014
1919.00,0.0013
1918.00,0.0012
1917.00,0.0012
1916.00,0.0011
1915.00,0.0012
1914.00,0.0012
1913.00,0.0013
1912.00,0.0013
1911.00,0.0013
1910.00,0.0012
1909.00,0.0012
1908.00,0.0011
1907.00,0.0011
1906.00,0.0012
1905.00,0.0013
1904.00,0.0013
1903.00,0.0014
1902.00,0.0014
1901.00,0.0015
1900.00,0.0016
1899.00,0.0016
1898.00,0.0017
1897.00,0.0017
1896.00,0.0018
1895.00,0.0019
1894.00,0.0021
1893.00,0.0022
1892.00,0.0023
1891.00,0.0025
1890.00,0.0026
1889.00,0.0028
1888.00,0.0029
1887.00,0.0031
1886.00,0.0032
1885.00,0.0032
1884.00,0.0033
1883.00,0.0034
1882.00,0.0035
1881.00,0.0036
1880.00,0.0037
1879.00,0.0038
1878.00,0.0039
1877.00,0.0040
1876.00,0.0040
1875.00,0.0040
1874.00,0.0040
1873.00,0.0041
1872.00,0.0041
1871.00,0.0042
1870.00,0.0042
1869.00,0.0041
1868.00,0.0041
1867.00,0.0040
1866.00,0.0039
1865.00,0.0038
1864.00,0.0037
1863.00,0.0035
1862.00,0.0034
1861.00,0.0032
1860.00,0.0030
1859.00,0.0028
1858.00,0.0026
1857.00,0.0025
1856.00,0.0023
1855.00,0.0021
1854.00,0.0020
1853.00,0.0019
1852.00,0.0017
1851.00,0.0016
1850.00,0.0016
1849.00,0.0015
1848.00,0.0015
1847.00,0.0015
1846.00,0.0014
1845.00,0.0014
1844.00,0.0014
1843.00,0.0014
1842.00,0.0014
1841.00,0.0014
1840.00,0.0014
1839.00,0.0015
1838.00,0.0015
1837.00,0.0015
1836.00,0.0015
1835.00,0.0015
1834.00,0.0016
1833.00,0.0016
1832.00,0.0017
1831.00,0.0017
1830.00,0.0018
1829.00,0.0019
1828.00,0.0020
1827.00,0.0021
1826.00,0.0022
1825.00,0.0023
1824.00,0.0024
1823.00,0.0025
1822.00,0.0026
1821.00,0.0027
1820.00,0.0027
1819.00,0.0027
1818.00,0.0028
1817.00,0.0029
1816.00,0.0030
1815.00,0.0032
1814.00,0.0034
1813.00,0.0036
1812.00,0.0038
1811.00,0.0039
1810.00,0.0041
1809.00,0.0042
1808.00,0.0043
1807.00,0.0045
1806.00,0.0046
1805.00,0.0047
1804.00,0.0048
1803.00,0.0048
1802.00,0.0049
1801.00,0.0049
1800.00,0.0048
1799.00,0.0047
1798.00,0.0045
1797.00,0.0044
1796.00,0.0042
1795.00,0.0040
1794.00,0.0038
1793.00,0.0036
1792.00,0.0034
1791.00,0.0032
1790.00,0.0030
1789.00,0.0029
1788.00,0.0027
1787.00,0.0027
1786.00,0.0026
1785.00,0.0025
1784.00,0.0025
1783.00,0.0024
1782.00,0.0024
1781.00,0.0024
1780.00,0.0024
1779.00,0.0024
1778.00,0.0023
1777.00,0.0024
1776.00,0.0024
1775.00,0.0024
1774.00,0.0025
1773.00,0.0025
1772.00,0.0024
1771.00,0.0024
1770.00,0.0024
1769.00,0.0024
1768.00,0.0024
1767.00,0.0025
1766.00,0.0026
1765.00,0.0026
1764.00,0.0026
1763.00,0.0027
1762.00,0.0028
1761.00,0.0030
1760.00,0.0031
1759.00,0.0032
1758.00,0.0033
1757.00,0.0034
1756.00,0.0036
1755.00,0.0038
1754.00,0.0039
1753.00,0.0040
1752.00,0.0041
1751.00,0.0043
1750.00,0.0044
1749.00,0.0045
1748.00,0.0046
1747.00,0.0046
1746.00,0.0047
1745.00,0.0048
1744.00,0.0048
1743.00,0.0049
1742.00,0.0049
1741.00,0.0048
1740.00,0.0048
1739.00,0.0047
1738.00,0.0046
1737.00,0.0046
1736.00,0.0045
1735.00,0.0045
1734.00,0.0045
1733.00,0.0044
1732.00,0.0043
1731.00,0.0041
1730.00,0.0040
1729.00,0.0040
1728.00,0.0040
1727.00,0.0039
1726.00,0.0039
1725.00,0.0039
1724.00,0.0039
1723.00,0.0039
1722.00,0.0038
1721.00,0.0038
1720.00,0.0037
1719.00,0.0037
1718.00,0.0037
1717.00,0.0037
1716.00,0.0037
1715.00,0.0037
1714.00,0.0038
1713.00,0.0038
1712.00,0.0039
1711.00,0.0040
1710.00,0.0041
1709.00,0.0042
1708.00,0.0043
1707.00,0.0044
1706.00,0.0044
1705.00,0.0044
1704.00,0.0045
1703.00,0.0045
1702.00,0.0045
1701.00,0.0045
1700.00,0.0044
1699.00,0.0044
1698.00,0.0043
1697.00,0.0042
1696.00,0.0042
1695.00,0.0042
1694.00,0.0042
1693.00,0.0041
1692.00,0.0040
1691.00,0.0040
1690.00,0.0041
1689.00,0.0042
1688.00,0.0043
1687.00,0.0044
1686.00,0.0045
1685.00,0.0046
1684.00,0.0048
1683.00,0.0049
1682.00,0.0049
1681.00,0.0048
1680.00,0.0048
1679.00,0.0048
1678.00,0.0047
1677.00,0.0046
1676.00,0.0045
1675.00,0.0044
1674.00,0.0043
1673.00,0.0043
1672.00,0.0042
1671.00,0.0041
1670.00,0.0041
1669.00,0.0041
1668.00,0.0041
1667.00,0.0041
1666.00,0.0041
1665.00,0.0041
1664.00,0.0041
1663.00,0.0040
1662.00,0.0040
1661.00,0.0039
1660.00,0.0039
1659.00,0.0039
1658.00,0.0039
1657.00,0.0038
1656.00,0.0038
1655.00,0.0038
1654.00,0.0038
1653.00,0.0038
1652.00,0.0038
1651.00,0.0037
1650.00,0.0035
1649.00,0.0033
1648.00,0.0033
1647.00,0.0032
1646.00,0.0032
1645.00,0.0032
1644.00,0.0031
1643.00,0.0031
1642.00,0.0030
1641.00,0.0030
1640.00,0.0030
1639.00,0.0029
1638.00,0.0029
1637.00,0.0029
1636.00,0.0029
1635.00,0.0029
1634.00,0.0030
1633.00,0.0030
1632.00,0.0030
1631.00,0.0031
1630.00,0.0031
1629.00,0.0032
1628.00,0.0033
1627.00,0.0033
1626.00,0.0034
1625.00,0.0035
1624.00,0.0035
1623.00,0.0036
1622.00,0.0037
1621.00,0.0038
1620.00,0.0038
1619.00,0.0039
1618.00,0.0040
1617.00,0.0042
1616.00,0.0045
1615.00,0.0048
1614.00,0.0050
1613.00,0.0054
1612.00,0.0059
1611.00,0.0067
1610.00,0.0078
1609.00,0.0094
1608.00,0.0114
1607.00,0.0140
1606.00,0.0169
1605.00,0.0202
1604.00,0.0234
1603.00,0.0263
1602.00,0.0283
1601.00,0.0288
1600.00,0.0280
1599.00,0.0259
1598.00,0.0231
1597.00,0.0200
1596.00,0.0171
1595.00,0.0147
1594.00,0.0129
1593.00,0.0114
1592.00,0.0103
1591.00,0.0094
1590.00,0.0088
1589.00,0.0085
1588.00,0.0087
1587.00,0.0092
1586.00,0.0101
1585.00,0.0111
1584.00,0.0119
1583.00,0.0121
1582.00,0.0116
1581.00,0.0105
1580.00,0.0091
1579.00,0.0079
1578.00,0.0068
1577.00,0.0060
1576.00,0.0053
1575.00,0.0048
1574.00,0.0045
1573.00,0.0041
1572.00,0.0039
1571.00,0.0037
1570.00,0.0035
1569.00,0.0033
1568.00,0.0032
1567.00,0.0032
1566.00,0.0031
1565.00,0.0030
1564.00,0.0030
1563.00,0.0030
1562.00,0.0030
1561.00,0.0030
1560.00,0.0030
1559.00,0.0030
1558.00,0.0031
1557.00,0.0031
1556.00,0.0031
1555.00,0.0032
1554.00,0.0034
1553.00,0.0036
1552.00,0.0037
1551.00,0.0039
1550.00,0.0040
1549.00,0.0042
1548.00,0.0044
1547.00,0.0045
1546.00,0.0046
1545.00,0.0047
1544.00,0.0048
1543.00,0.0049
1542.00,0.0049
1541.00,0.0050
1540.00,0.0051
1539.00,0.0053
1538.00,0.0055
1537.00,0.0056
1536.00,0.0057
1535.00,0.0058
1534.00,0.0058
1533.00,0.0057
1532.00,0.0056
1531.00,0.0054
1530.00,0.0052
1529.00,0.0049
1528.00,0.0046
1527.00,0.0043
1526.00,0.0041
1525.00,0.0039
1524.00,0.0037
1523.00,0.0036
1522.00,0.0035
1521.00,0.0035
1520.00,0.0035
1519.00,0.0035
1518.00,0.0034
1517.00,0.0035
1516.00,0.0036
1515.00,0.0037
1514.00,0.0038
1513.00,0.0039
1512.00,0.0041
1511.00,0.0042
1510.00,0.0044
1509.00,0.0046
1508.00,0.0048
1507.00,0.0052
1506.00,0.0058
1505.00,0.0065
1504.00,0.0071
1503.00,0.0079
1502.00,0.0090
1501.00,0.0106
1500.00,0.0130
1499.00,0.0167
1498.00,0.0226
1497.00,0.0316
1496.00,0.0435
1495.00,0.0558
1494.00,0.0658
1493.00,0.0715
1492.00,0.0716
1491.00,0.0655
1490.00,0.0548
1489.00,0.0435
1488.00,0.0343
1487.00,0.0276
1486.00,0.0228
1485.00,0.0192
1484.00,0.0163
1483.00,0.0141
1482.00,0.0122
1481.00,0.0107
1480.00,0.0097
1479.00,0.0089
1478.00,0.0083
1477.00,0.0078
1476.00,0.0074
1475.00,0.0070
1474.00,0.0067
1473.00,0.0065
1472.00,0.0064
1471.00,0.0065
1470.00,0.0065
1469.00,0.0067
1468.00,0.0069
1467.00,0.0070
1466.00,0.0072
1465.00,0.0074
1464.00,0.0078
1463.00,0.0084
1462.00,0.0092
1461.00,0.0102
1460.00,0.0118
1459.00,0.0144
1458.00,0.0195
1457.00,0.0286
1456.00,0.0404
1455.00,0.0516
1454.00,0.0610
1453.00,0.0682
1452.00,0.0718
1451.00,0.0713
1450.00,0.0675
1449.00,0.0621
1448.00,0.0564
1447.00,0.0512
1446.00,0.0470
1445.00,0.0435
1444.00,0.0400
1443.00,0.0367
1442.00,0.0336
1441.00,0.0308
1440.00,0.0285
1439.00,0.0264
1438.00,0.0242
1437.00,0.0219
1436.00,0.0195
1435.00,0.0175
1434.00,0.0159
1433.00,0.0146
1432.00,0.0132
1431.00,0.0120
1430.00,0.0108
1429.00,0.0098
1428.00,0.0091
1427.00,0.0084
1426.00,0.0080
1425.00,0.0076
1424.00,0.0072
1423.00,0.0069
1422.00,0.0066
1421.00,0.0064
1420.00,0.0062
1419.00,0.0060
1418.00,0.0059
1417.00,0.0057
1416.00,0.0055
1415.00,0.0054
1414.00,0.0052
1413.00,0.0051
1412.00,0.0050
1411.00,0.0049
1410.00,0.0048
1409.00,0.0047
1408.00,0.0046
1407.00,0.0045
1406.00,0.0044
1405.00,0.0043
1404.00,0.0041
1403.00,0.0040
1402.00,0.0040
1401.00,0.0039
1400.00,0.0038
1399.00,0.0037
1398.00,0.0036
1397.00,0.0036
1396.00,0.0036
1395.00,0.0038
1394.00,0.0040
1393.00,0.0043
1392.00,0.0047
1391.00,0.0051
1390.00,0.0055
1389.00,0.0060
1388.00,0.0065
1387.00,0.0071
1386.00,0.0077
1385.00,0.0082
1384.00,0.0086
1383.00,0.0090
1382.00,0.0094
1381.00,0.0099
1380.00,0.0103
1379.00,0.0108
1378.00,0.0114
1377.00,0.0119
1376.00,0.0123
1375.00,0.0127
1374.00,0.0130
1373.00,0.0133
1372.00,0.0134
1371.00,0.0136
1370.00,0.0136
1369.00,0.0137
1368.00,0.0137
1367.00,0.0137
1366.00,0.0137
1365.00,0.0136
1364.00,0.0136
1363.00,0.0135
1362.00,0.0134
1361.00,0.0133
1360.00,0.0132
1359.00,0.0130
1358.00,0.0129
1357.00,0.0127
1356.00,0.0126
1355.00,0.0126
1354.00,0.0126
1353.00,0.0126
1352.00,0.0126
1351.00,0.0126
1350.00,0.0126
1349.00,0.0126
1348.00,0.0125
1347.00,0.0123
1346.00,0.0122
1345.00,0.0120
1344.00,0.0117
1343.00,0.0115
1342.00,0.0112
1341.00,0.0111
1340.00,0.0109
1339.00,0.0108
1338.00,0.0108
1337.00,0.0108
1336.00,0.0110
1335.00,0.0112
1334.00,0.0115
1333.00,0.0119
1332.00,0.0122
1331.00,0.0126
1330.00,0.0128
1329.00,0.0130
1328.00,0.0130
1327.00,0.0130
1326.00,0.0128
1325.00,0.0126
1324.00,0.0125
1323.00,0.0123
1322.00,0.0122
1321.00,0.0122
1320.00,0.0122
1319.00,0.0122
1318.00,0.0124
1317.00,0.0125
1316.00,0.0128
1315.00,0.0130
1314.00,0.0132
1313.00,0.0134
1312.00,0.0135
1311.00,0.0134
1310.00,0.0133
1309.00,0.0132
1308.00,0.0129
1307.00,0.0127
1306.00,0.0124
1305.00,0.0122
1304.00,0.0119
1303.00,0.0116
1302.00,0.0113
1301.00,0.0111
1300.00,0.0108
1299.00,0.0106
1298.00,0.0105
1297.00,0.0104
1296.00,0.0103
1295.00,0.0102
1294.00,0.0101
1293.00,0.0101
1292.00,0.0100
1291.00,0.0099
1290.00,0.0099
1289.00,0.0098
1288.00,0.0097
1287.00,0.0096
1286.00,0.0096
1285.00,0.0095
1284.00,0.0095
1283.00,0.0094
1282.00,0.0094
1281.00,0.0093
1280.00,0.0092
1279.00,0.0090
1278.00,0.0087
1277.00,0.0085
1276.00,0.0082
1275.00,0.0079
1274.00,0.0077
1273.00,0.0074
1272.00,0.0071
1271.00,0.0069
1270.00,0.0066
1269.00,0.0064
1268.00,0.0062
1267.00,0.0061
1266.00,0.0059
1265.00,0.0057
1264.00,0.0056
1263.00,0.0055
1262.00,0.0054
1261.00,0.0053
1260.00,0.0053
1259.00,0.0052
1258.00,0.0052
1257.00,0.0052
1256.00,0.0052
1255.00,0.0052
1254.00,0.0052
1253.00,0.0052
1252.00,0.0052
1251.00,0.0053
1250.00,0.0054
1249.00,0.0055
1248.00,0.0056
1247.00,0.0057
1246.00,0.0058
1245.00,0.0059
1244.00,0.0059
1243.00,0.0060
1242.00,0.0060
1241.00,0.0060
1240.00,0.0060
1239.00,0.0060
1238.00,0.0061
1237.00,0.0062
1236.00,0.0063
1235.00,0.0064
1234.00,0.0066
1233.00,0.0067
1232.00,0.0069
1231.00,0.0071
1230.00,0.0072
1229.00,0.0073
1228.00,0.0074
1227.00,0.0075
1226.00,0.0076
1225.00,0.0076
1224.00,0.0077
1223.00,0.0077
1222.00,0.0077
1221.00,0.0078
1220.00,0.0078
1219.00,0.0078
1218.00,0.0079
1217.00,0.0080
1216.00,0.0080
1215.00,0.0081
1214.00,0.0081
1213.00,0.0082
1212.00,0.0083
1211.00,0.0084
1210.00,0.0084
1209.00,0.0085
1208.00,0.0086
1207.00,0.0087
1206.00,0.0089
1205.00,0.0091
1204.00,0.0093
1203.00,0.0095
1202.00,0.0098
1201.00,0.0100
1200.00,0.0102
1199.00,0.0104
1198.00,0.0106
1197.00,0.0107
1196.00,0.0107
1195.00,0.0108
1194.00,0.0108
1193.00,0.0109
1192.00,0.0109
1191.00,0.0110
1190.00,0.0111
1189.00,0.0113
1188.00,0.0115
1187.00,0.0118
1186.00,0.0122
1185.00,0.0128
1184.00,0.0134
1183.00,0.0140
1182.00,0.0144
1181.00,0.0144
1180.00,0.0140
1179.00,0.0132
1178.00,0.0121
1177.00,0.0110
1176.00,0.0099
1175.00,0.0090
1174.00,0.0083
1173.00,0.0078
1172.00,0.0074
1171.00,0.0071
1170.00,0.0069
1169.00,0.0067
1168.00,0.0065
1167.00,0.0064
1166.00,0.0064
1165.00,0.0064
1164.00,0.0065
1163.00,0.0067
1162.00,0.0071
1161.00,0.0076
1160.00,0.0084
1159.00,0.0093
1158.00,0.0104
1157.00,0.0114
1156.00,0.0123
1155.00,0.0128
1154.00,0.0128
1153.00,0.0123
1152.00,0.0113
1151.00,0.0101
1150.00,0.0088
1149.00,0.0078
1148.00,0.0070
1147.00,0.0064
1146.00,0.0060
1145.00,0.0056
1144.00,0.0053
1143.00,0.0050
1142.00,0.0048
1141.00,0.0046
1140.00,0.0045
1139.00,0.0044
1138.00,0.0043
1137.00,0.0043
1136.00,0.0042
1135.00,0.0043
1134.00,0.0043
1133.00,0.0043
1132.00,0.0043
1131.00,0.0043
1130.00,0.0044
1129.00,0.0045
1128.00,0.0046
1127.00,0.0048
1126.00,0.0049
1125.00,0.0051
1124.00,0.0054
1123.00,0.0056
1122.00,0.0059
1121.00,0.0061
1120.00,0.0064
1119.00,0.0066
1118.00,0.0069
1117.00,0.0071
1116.00,0.0074
1115.00,0.0076
1114.00,0.0077
1113.00,0.0078
1112.00,0.0079
1111.00,0.0079
1110.00,0.0078
1109.00,0.0078
1108.00,0.0077
1107.00,0.0077
1106.00,0.0077
1105.00,0.0078
1104.00,0.0079
1103.00,0.0079
1102.00,0.0080
1101.00,0.0081
1100.00,0.0082
1099.00,0.0082
1098.00,0.0083
1097.00,0.0083
1096.00,0.0083
1095.00,0.0083
1094.00,0.0083
1093.00,0.0083
1092.00,0.0084
1091.00,0.0085
1090.00,0.0086
1089.00,0.0087
1088.00,0.0089
1087.00,0.0092
1086.00,0.0095
1085.00,0.0099
1084.00,0.0103
1083.00,0.0108
1082.00,0.0112
1081.00,0.0117
1080.00,0.0122
1079.00,0.0127
1078.00,0.0133
1077.00,0.0139
1076.00,0.0146
1075.00,0.0154
1074.00,0.0162
1073.00,0.0171
1072.00,0.0180
1071.00,0.0187
1070.00,0.0192
1069.00,0.0194
1068.00,0.0194
1067.00,0.0192
1066.00,0.0187
1065.00,0.0180
1064.00,0.0172
1063.00,0.0164
1062.00,0.0156
1061.00,0.0149
1060.00,0.0142
1059.00,0.0136
1058.00,0.0131
1057.00,0.0127
1056.00,0.0123
1055.00,0.0120
1054.00,0.0117
1053.00,0.0115
1052.00,0.0112
1051.00,0.0110
1050.00,0.0108
1049.00,0.0106
1048.00,0.0104
1047.00,0.0103
1046.00,0.0101
1045.00,0.0100
1044.00,0.0100
1043.00,0.0100
1042.00,0.0102
1041.00,0.0104
1040.00,0.0108
1039.00,0.0113
1038.00,0.0123
1037.00,0.0137
1036.00,0.0157
1035.00,0.0183
1034.00,0.0215
1033.00,0.0250
1032.00,0.0286
1031.00,0.0319
1030.00,0.0347
1029.00,0.0366
1028.00,0.0373
1027.00,0.0369
1026.00,0.0352
1025.00,0.0329
1024.00,0.0302
1023.00,0.0277
1022.00,0.0255
1021.00,0.0237
1020.00,0.0221
1019.00,0.0208
1018.00,0.0197
1017.00,0.0187
1016.00,0.0178
1015.00,0.0170
1014.00,0.0164
1013.00,0.0158
1012.00,0.0153
1011.00,0.0148
1010.00,0.0145
1009.00,0.0144
1008.00,0.0144
1007.00,0.0146
1006.00,0.0149
1005.00,0.0154
1004.00,0.0157
1003.00,0.0157
1002.00,0.0153
1001.00,0.0146
1000.00,0.0136
999.00,0.0127
998.00,0.0120
997.00,0.0115
996.00,0.0112
995.00,0.0110
994.00,0.0110
993.00,0.0110
992.00,0.0110
991.00,0.0111
990.00,0.0112
989.00,0.0114
988.00,0.0117
987.00,0.0120
986.00,0.0123
985.00,0.0127
984.00,0.0130
983.00,0.0134
982.00,0.0136
981.00,0.0138
980.00,0.0138
979.00,0.0137
978.00,0.0134
977.00,0.0130
976.00,0.0126
975.00,0.0121
974.00,0.0117
973.00,0.0115
972.00,0.0114
971.00,0.0115
970.00,0.0118
969.00,0.0122
968.00,0.0126
967.00,0.0131
966.00,0.0134
965.00,0.0137
964.00,0.0137
963.00,0.0136
962.00,0.0132
961.00,0.0126
960.00,0.0118
959.00,0.0110
958.00,0.0103
957.00,0.0097
956.00,0.0092
955.00,0.0089
954.00,0.0087
953.00,0.0086
952.00,0.0085
951.00,0.0085
950.00,0.0087
949.00,0.0089
948.00,0.0091
947.00,0.0094
946.00,0.0096
945.00,0.0099
944.00,0.0101
943.00,0.0102
942.00,0.0102
941.00,0.0101
940.00,0.0099
939.00,0.0096
938.00,0.0093
937.00,0.0090
936.00,0.0088
935.00,0.0085
934.00,0.0082
933.00,0.0080
932.00,0.0078
931.00,0.0077
930.00,0.0077
929.00,0.0077
928.00,0.0077
927.00,0.0078
926.00,0.0080
925.00,0.0082
924.00,0.0084
923.00,0.0087
922.00,0.0090
921.00,0.0093
920.00,0.0097
919.00,0.0102
918.00,0.0107
917.00,0.0115
916.00,0.0125
915.00,0.0136
914.00,0.0150
913.00,0.0165
912.00,0.0182
911.00,0.0199
910.00,0.0215
909.00,0.0230
908.00,0.0241
907.00,0.0247
906.00,0.0248
905.00,0.0244
904.00,0.0234
903.00,0.0220
902.00,0.0203
901.00,0.0185
900.00,0.0166
899.00,0.0148
898.00,0.0133
897.00,0.0120
896.00,0.0110
895.00,0.0102
894.00,0.0096
893.00,0.0091
892.00,0.0088
891.00,0.0084
890.00,0.0082
889.00,0.0079
888.00,0.0077
887.00,0.0075
886.00,0.0073
885.00,0.0071
884.00,0.0070
883.00,0.0069
882.00,0.0067
881.00,0.0066
880.00,0.0065
879.00,0.0063
878.00,0.0062
877.00,0.0061
876.00,0.0060
875.00,0.0059
874.00,0.0059
873.00,0.0058
872.00,0.0058
871.00,0.0058
870.00,0.0057
869.00,0.0057
868.00,0.0057
867.00,0.0057
866.00,0.0057
865.00,0.0057
864.00,0.0056
863.00,0.0056
862.00,0.0056
861.00,0.0057
860.00,0.0058
859.00,0.0058
858.00,0.0059
857.00,0.0059
856.00,0.0060
855.00,0.0061
854.00,0.0063
853.00,0.0066
852.00,0.0070
851.00,0.0075
850.00,0.0080
849.00,0.0087
848.00,0.0094
847.00,0.0102
846.00,0.0110
845.00,0.0116
844.00,0.0122
843.00,0.0126
842.00,0.0128
841.00,0.0128
840.00,0.0126
839.00,0.0121
838.00,0.0114
837.00,0.0105
836.00,0.0097
835.00,0.0088
834.00,0.0080
833.00,0.0073
832.00,0.0067
831.00,0.0063
830.00,0.0060
829.00,0.0058
828.00,0.0055
827.00,0.0053
826.00,0.0051
825.00,0.0050
824.00,0.0050
823.00,0.0049
822.00,0.0050
821.00,0.0049
820.00,0.0049
819.00,0.0049
818.00,0.0049
817.00,0.0049
816.00,0.0050
815.00,0.0050
814.00,0.0051
813.00,0.0051
812.00,0.0052
811.00,0.0053
810.00,0.0054
809.00,0.0055
808.00,0.0055
807.00,0.0055
806.00,0.0056
805.00,0.0057
804.00,0.0058
803.00,0.0059
802.00,0.0061
801.00,0.0063
800.00,0.0066
799.00,0.0070
798.00,0.0074
797.00,0.0078
796.00,0.0082
795.00,0.0087
794.00,0.0092
793.00,0.0097
792.00,0.0103
791.00,0.0109
790.00,0.0116
789.00,0.0123
788.00,0.0131
787.00,0.0139
786.00,0.0148
785.00,0.0158
784.00,0.0169
783.00,0.0181
782.00,0.0193
781.00,0.0208
780.00,0.0224
779.00,0.0243
778.00,0.0265
777.00,0.0289
776.00,0.0316
775.00,0.0346
774.00,0.0378
773.00,0.0413
772.00,0.0451
771.00,0.0491
770.00,0.0534
769.00,0.0578
768.00,0.0622
767.00,0.0666
766.00,0.0709
765.00,0.0751
764.00,0.0793
763.00,0.0836
762.00,0.0880
761.00,0.0925
760.00,0.0969
759.00,0.1009
758.00,0.1044
757.00,0.1071
756.00,0.1088
755.00,0.1097
754.00,0.1098
753.00,0.1095
752.00,0.1089
751.00,0.1085
750.00,0.1082
749.00,0.1078
748.00,0.1070
747.00,0.1052
746.00,0.1020
745.00,0.0973
744.00,0.0912
743.00,0.0842
742.00,0.0769
741.00,0.0698
740.00,0.0632
739.00,0.0570
738.00,0.0513
737.00,0.0461
736.00,0.0411
735.00,0.0363
734.00,0.0317
733.00,0.0275
732.00,0.0239
731.00,0.0209
730.00,0.0185
729.00,0.0166
728.00,0.0152
727.00,0.0142
726.00,0.0134
725.00,0.0129
724.00,0.0125
723.00,0.0122
722.00,0.0121
721.00,0.0121
720.00,0.0122
719.00,0.0125
718.00,0.0130
717.00,0.0136
716.00,0.0146
715.00,0.0160
714.00,0.0178
713.00,0.0203
712.00,0.0238
711.00,0.0286
710.00,0.0352
709.00,0.0438
708.00,0.0548
707.00,0.0684
706.00,0.0847
705.00,0.1038
704.00,0.1256
703.00,0.1501
702.00,0.1771
701.00,0.2063
700.00,0.2370
699.00,0.2684
698.00,0.2990
697.00,0.3258
696.00,0.3442
695.00,0.3489
694.00,0.3368
693.00,0.3095
692.00,0.2727
691.00,0.2339
690.00,0.1985
689.00,0.1688
688.00,0.1449
687.00,0.1263
686.00,0.1117
685.00,0.1002
684.00,0.0908
683.00,0.0831
682.00,0.0766
681.00,0.0711
680.00,0.0663
679.00,0.0622
678.00,0.0587
677.00,0.0557
676.00,0.0531
675.00,0.0507
674.00,0.0486
673.00,0.0467
672.00,0.0451
671.00,0.0437
670.00,0.0425
669.00,0.0412
668.00,0.0397
667.00,0.0380
666.00,0.0364
665.00,0.0350
664.00,0.0336
663.00,0.0322
662.00,0.0309
661.00,0.0296
660.00,0.0284
659.00,0.0272
658.00,0.0260
657.00,0.0249
656.00,0.0239
655.00,0.0229
654.00,0.0220
653.00,0.0212
652.00,0.0205
651.00,0.0199
650.00,0.0193
649.00,0.0188
648.00,0.0182
647.00,0.0177
646.00,0.0173
645.00,0.0170
644.00,0.0166
643.00,0.0164
642.00,0.0162
641.00,0.0162
640.00,0.0162
639.00,0.0164
638.00,0.0167
637.00,0.0171
636.00,0.0175
635.00,0.0179
634.00,0.0184
633.00,0.0188
632.00,0.0192
631.00,0.0196
630.00,0.0200
629.00,0.0204
628.00,0.0206
627.00,0.0209
626.00,0.0211
625.00,0.0213
624.00,0.0217
623.00,0.0221
622.00,0.0226
621.00,0.0229
620.00,0.0229
619.00,0.0224
618.00,0.0217
617.00,0.0209
616.00,0.0203
615.00,0.0198
614.00,0.0193
613.00,0.0189
612.00,0.0185
611.00,0.0181
610.00,0.0179
609.00,0.0177
608.00,0.0175
607.00,0.0175
606.00,0.0174
605.00,0.0174
604.00,0.0174
603.00,0.0175
602.00,0.0175
601.00,0.0176
600.00,0.0178
599.00,0.0179
598.00,0.0181
597.00,0.0183
596.00,0.0186
595.00,0.0189
594.00,0.0192
593.00,0.0196
592.00,0.0199
591.00,0.0202
590.00,0.0205
589.00,0.0207
588.00,0.0210
587.00,0.0213
586.00,0.0217
585.00,0.0223
584.00,0.0228
583.00,0.0233
582.00,0.0239
581.00,0.0246
580.00,0.0255
579.00,0.0266
578.00,0.0278
577.00,0.0290
576.00,0.0302
575.00,0.0314
574.00,0.0328
573.00,0.0344
572.00,0.0360
571.00,0.0376
570.00,0.0391
569.00,0.0404
568.00,0.0418
567.00,0.0432
566.00,0.0445
565.00,0.0459
564.00,0.0474
563.00,0.0489
562.00,0.0503
561.00,0.0517
560.00,0.0531
559.00,0.0546
558.00,0.0560
557.00,0.0575
556.00,0.0590
555.00,0.0605
554.00,0.0620
553.00,0.0638
552.00,0.0658
551.00,0.0680
550.00,0.0704
549.00,0.0729
548.00,0.0757
547.00,0.0787
546.00,0.0818
545.00,0.0853
544.00,0.0890
543.00,0.0926
542.00,0.0959
541.00,0.0989
540.00,0.1013
539.00,0.1028
538.00,0.1032
537.00,0.1024
536.00,0.1005
535.00,0.0974
534.00,0.0932
533.00,0.0883
532.00,0.0832
531.00,0.0779
530.00,0.0728
529.00,0.0680
528.00,0.0635
527.00,0.0593
526.00,0.0552
525.00,0.0516
524.00,0.0485
523.00,0.0459
522.00,0.0436
521.00,0.0416
520.00,0.0398
519.00,0.0383
518.00,0.0368
517.00,0.0355
516.00,0.0343
515.00,0.0332
514.00,0.0322
513.00,0.0312
512.00,0.0303
511.00,0.0294
510.00,0.0283
509.00,0.0273
508.00,0.0262
507.00,0.0253
506.00,0.0245
505.00,0.0238
504.00,0.0232
503.00,0.0226
502.00,0.0219
501.00,0.0212
500.00,0.0205
499.00,0.0199
498.00,0.0194
497.00,0.0190
496.00,0.0187
495.00,0.0184
494.00,0.0181
493.00,0.0177
492.00,0.0175
491.00,0.0173
490.00,0.0170
489.00,0.0167
488.00,0.0163
487.00,0.0160
486.00,0.0158
485.00,0.0156
484.00,0.0154
483.00,0.0152
482.00,0.0151
481.00,0.0151
480.00,0.0152
479.00,0.0151
478.00,0.0150
477.00,0.0148
476.00,0.0146
475.00,0.0143
474.00,0.0141
473.00,0.0139
472.00,0.0139
471.00,0.0137
470.00,0.0136
469.00,0.0134
468.00,0.0132
467.00,0.0132
466.00,0.0132
465.00,0.0134
464.00,0.0135
463.00,0.0136
462.00,0.0134
461.00,0.0131
460.00,0.0128
459.00,0.0125
458.00,0.0126
457.00,0.0128
456.00,0.0131
455.00,0.0132
454.00,0.0131
453.00,0.0129
452.00,0.0128
451.00,0.0125
450.00,0.0122
449.00,0.0119
448.00,0.0118
447.00,0.0118
446.00,0.0119
445.00,0.0121
444.00,0.0122
443.00,0.0122
442.00,0.0120
441.00,0.0118
440.00,0.0117
439.00,0.0118
438.00,0.0119
437.00,0.0119
436.00,0.0119
435.00,0.0118
434.00,0.0115
433.00,0.0113
432.00,0.0110
431.00,0.0108
430.00,0.0105
429.00,0.0101
428.00,0.0099
427.00,0.0096
426.00,0.0093
425.00,0.0090
424.00,0.0087
423.00,0.0086
422.00,0.0086
421.00,0.0088
420.00,0.0091
419.00,0.0094
418.00,0.0092
417.00,0.0086
416.00,0.0080
415.00,0.0078
414.00,0.0081
413.00,0.0085
412.00,0.0089
411.00,0.0090
410.00,0.0093
409.00,0.0100
408.00,0.0109
407.00,0.0118
406.00,0.0124
405.00,0.0127
404.00,0.0129
403.00,0.0130
402.00,0.0130
401.00,0.0126
400.00,0.0117
