Created as New Dataset,Sample 631 By YargerLab Date Friday, June 06 2025
cm-1,A
4000.00,0.0018
3999.00,0.0018
3998.00,0.0018
3997.00,0.0018
3996.00,0.0018
3995.00,0.0017
3994.00,0.0017
3993.00,0.0017
3992.00,0.0017
3991.00,0.0017
3990.00,0.0017
3989.00,0.0017
3988.00,0.0017
3987.00,0.0018
3986.00,0.0018
3985.00,0.0017
3984.00,0.0017
3983.00,0.0017
3982.00,0.0017
3981.00,0.0017
3980.00,0.0017
3979.00,0.0017
3978.00,0.0017
3977.00,0.0017
3976.00,0.0017
3975.00,0.0017
3974.00,0.0017
3973.00,0.0017
3972.00,0.0017
3971.00,0.0017
3970.00,0.0017
3969.00,0.0017
3968.00,0.0017
3967.00,0.0017
3966.00,0.0017
3965.00,0.0016
3964.00,0.0016
3963.00,0.0016
3962.00,0.0016
3961.00,0.0016
3960.00,0.0017
3959.00,0.0017
3958.00,0.0017
3957.00,0.0017
3956.00,0.0017
3955.00,0.0017
3954.00,0.0017
3953.00,0.0017
3952.00,0.0017
3951.00,0.0017
3950.00,0.0017
3949.00,0.0017
3948.00,0.0017
3947.00,0.0017
3946.00,0.0017
3945.00,0.0017
3944.00,0.0017
3943.00,0.0017
3942.00,0.0017
3941.00,0.0017
3940.00,0.0017
3939.00,0.0017
3938.00,0.0017
3937.00,0.0017
3936.00,0.0018
3935.00,0.0018
3934.00,0.0018
3933.00,0.0018
3932.00,0.0017
3931.00,0.0017
3930.00,0.0017
3929.00,0.0017
3928.00,0.0017
3927.00,0.0017
3926.00,0.0017
3925.00,0.0017
3924.00,0.0017
3923.00,0.0017
3922.00,0.0017
3921.00,0.0017
3920.00,0.0017
3919.00,0.0017
3918.00,0.0017
3917.00,0.0017
3916.00,0.0017
3915.00,0.0017
3914.00,0.0017
3913.00,0.0017
3912.00,0.0017
3911.00,0.0017
3910.00,0.0017
3909.00,0.0017
3908.00,0.0017
3907.00,0.0017
3906.00,0.0017
3905.00,0.0017
3904.00,0.0017
3903.00,0.0017
3902.00,0.0018
3901.00,0.0018
3900.00,0.0017
3899.00,0.0017
3898.00,0.0017
3897.00,0.0017
3896.00,0.0017
3895.00,0.0017
3894.00,0.0017
3893.00,0.0017
3892.00,0.0017
3891.00,0.0017
3890.00,0.0017
3889.00,0.0017
3888.00,0.0018
3887.00,0.0017
3886.00,0.0017
3885.00,0.0018
3884.00,0.0018
3883.00,0.0018
3882.00,0.0018
3881.00,0.0017
3880.00,0.0017
3879.00,0.0017
3878.00,0.0017
3877.00,0.0017
3876.00,0.0017
3875.00,0.0017
3874.00,0.0017
3873.00,0.0017
3872.00,0.0017
3871.00,0.0017
3870.00,0.0017
3869.00,0.0017
3868.00,0.0017
3867.00,0.0017
3866.00,0.0017
3865.00,0.0017
3864.00,0.0017
3863.00,0.0017
3862.00,0.0017
3861.00,0.0017
3860.00,0.0017
3859.00,0.0017
3858.00,0.0018
3857.00,0.0018
3856.00,0.0019
3855.00,0.0019
3854.00,0.0019
3853.00,0.0018
3852.00,0.0018
3851.00,0.0018
3850.00,0.0018
3849.00,0.0017
3848.00,0.0017
3847.00,0.0017
3846.00,0.0017
3845.00,0.0018
3844.00,0.0018
3843.00,0.0018
3842.00,0.0017
3841.00,0.0017
3840.00,0.0017
3839.00,0.0017
3838.00,0.0017
3837.00,0.0017
3836.00,0.0017
3835.00,0.0017
3834.00,0.0017
3833.00,0.0017
3832.00,0.0017
3831.00,0.0017
3830.00,0.0017
3829.00,0.0017
3828.00,0.0017
3827.00,0.0017
3826.00,0.0017
3825.00,0.0018
3824.00,0.0018
3823.00,0.0018
3822.00,0.0017
3821.00,0.0017
3820.00,0.0017
3819.00,0.0017
3818.00,0.0017
3817.00,0.0017
3816.00,0.0017
3815.00,0.0017
3814.00,0.0018
3813.00,0.0018
3812.00,0.0018
3811.00,0.0018
3810.00,0.0018
3809.00,0.0018
3808.00,0.0018
3807.00,0.0018
3806.00,0.0018
3805.00,0.0018
3804.00,0.0018
3803.00,0.0018
3802.00,0.0018
3801.00,0.0017
3800.00,0.0018
3799.00,0.0018
3798.00,0.0018
3797.00,0.0017
3796.00,0.0017
3795.00,0.0017
3794.00,0.0017
3793.00,0.0017
3792.00,0.0017
3791.00,0.0017
3790.00,0.0017
3789.00,0.0017
3788.00,0.0018
3787.00,0.0018
3786.00,0.0018
3785.00,0.0017
3784.00,0.0017
3783.00,0.0018
3782.00,0.0017
3781.00,0.0017
3780.00,0.0017
3779.00,0.0017
3778.00,0.0017
3777.00,0.0017
3776.00,0.0017
3775.00,0.0017
3774.00,0.0017
3773.00,0.0017
3772.00,0.0017
3771.00,0.0017
3770.00,0.0017
3769.00,0.0017
3768.00,0.0018
3767.00,0.0018
3766.00,0.0018
3765.00,0.0018
3764.00,0.0018
3763.00,0.0018
3762.00,0.0018
3761.00,0.0018
3760.00,0.0018
3759.00,0.0018
3758.00,0.0018
3757.00,0.0018
3756.00,0.0018
3755.00,0.0018
3754.00,0.0018
3753.00,0.0018
3752.00,0.0018
3751.00,0.0018
3750.00,0.0018
3749.00,0.0018
3748.00,0.0018
3747.00,0.0018
3746.00,0.0018
3745.00,0.0017
3744.00,0.0017
3743.00,0.0017
3742.00,0.0018
3741.00,0.0018
3740.00,0.0017
3739.00,0.0017
3738.00,0.0017
3737.00,0.0017
3736.00,0.0017
3735.00,0.0017
3734.00,0.0017
3733.00,0.0017
3732.00,0.0017
3731.00,0.0017
3730.00,0.0017
3729.00,0.0017
3728.00,0.0016
3727.00,0.0016
3726.00,0.0017
3725.00,0.0017
3724.00,0.0016
3723.00,0.0016
3722.00,0.0016
3721.00,0.0016
3720.00,0.0016
3719.00,0.0016
3718.00,0.0016
3717.00,0.0016
3716.00,0.0017
3715.00,0.0017
3714.00,0.0017
3713.00,0.0017
3712.00,0.0017
3711.00,0.0017
3710.00,0.0017
3709.00,0.0017
3708.00,0.0017
3707.00,0.0017
3706.00,0.0017
3705.00,0.0017
3704.00,0.0017
3703.00,0.0016
3702.00,0.0016
3701.00,0.0016
3700.00,0.0016
3699.00,0.0016
3698.00,0.0016
3697.00,0.0016
3696.00,0.0016
3695.00,0.0016
3694.00,0.0016
3693.00,0.0016
3692.00,0.0016
3691.00,0.0017
3690.00,0.0017
3689.00,0.0016
3688.00,0.0016
3687.00,0.0016
3686.00,0.0015
3685.00,0.0015
3684.00,0.0015
3683.00,0.0015
3682.00,0.0015
3681.00,0.0014
3680.00,0.0014
3679.00,0.0015
3678.00,0.0015
3677.00,0.0015
3676.00,0.0015
3675.00,0.0015
3674.00,0.0015
3673.00,0.0015
3672.00,0.0015
3671.00,0.0014
3670.00,0.0014
3669.00,0.0014
3668.00,0.0014
3667.00,0.0014
3666.00,0.0014
3665.00,0.0013
3664.00,0.0013
3663.00,0.0013
3662.00,0.0012
3661.00,0.0013
3660.00,0.0013
3659.00,0.0013
3658.00,0.0014
3657.00,0.0014
3656.00,0.0014
3655.00,0.0014
3654.00,0.0014
3653.00,0.0014
3652.00,0.0015
3651.00,0.0015
3650.00,0.0015
3649.00,0.0015
3648.00,0.0014
3647.00,0.0015
3646.00,0.0015
3645.00,0.0015
3644.00,0.0015
3643.00,0.0015
3642.00,0.0014
3641.00,0.0014
3640.00,0.0014
3639.00,0.0014
3638.00,0.0014
3637.00,0.0014
3636.00,0.0014
3635.00,0.0015
3634.00,0.0015
3633.00,0.0015
3632.00,0.0016
3631.00,0.0016
3630.00,0.0016
3629.00,0.0016
3628.00,0.0016
3627.00,0.0016
3626.00,0.0016
3625.00,0.0016
3624.00,0.0016
3623.00,0.0016
3622.00,0.0016
3621.00,0.0016
3620.00,0.0016
3619.00,0.0016
3618.00,0.0016
3617.00,0.0016
3616.00,0.0016
3615.00,0.0016
3614.00,0.0016
3613.00,0.0016
3612.00,0.0016
3611.00,0.0016
3610.00,0.0016
3609.00,0.0015
3608.00,0.0015
3607.00,0.0015
3606.00,0.0015
3605.00,0.0016
3604.00,0.0016
3603.00,0.0016
3602.00,0.0016
3601.00,0.0016
3600.00,0.0016
3599.00,0.0016
3598.00,0.0016
3597.00,0.0016
3596.00,0.0015
3595.00,0.0015
3594.00,0.0015
3593.00,0.0015
3592.00,0.0016
3591.00,0.0016
3590.00,0.0017
3589.00,0.0017
3588.00,0.0017
3587.00,0.0017
3586.00,0.0017
3585.00,0.0017
3584.00,0.0016
3583.00,0.0016
3582.00,0.0016
3581.00,0.0016
3580.00,0.0016
3579.00,0.0016
3578.00,0.0015
3577.00,0.0015
3576.00,0.0015
3575.00,0.0015
3574.00,0.0015
3573.00,0.0015
3572.00,0.0016
3571.00,0.0016
3570.00,0.0016
3569.00,0.0016
3568.00,0.0017
3567.00,0.0017
3566.00,0.0017
3565.00,0.0017
3564.00,0.0017
3563.00,0.0016
3562.00,0.0016
3561.00,0.0016
3560.00,0.0016
3559.00,0.0016
3558.00,0.0016
3557.00,0.0016
3556.00,0.0017
3555.00,0.0017
3554.00,0.0017
3553.00,0.0017
3552.00,0.0017
3551.00,0.0017
3550.00,0.0017
3549.00,0.0017
3548.00,0.0017
3547.00,0.0017
3546.00,0.0017
3545.00,0.0017
3544.00,0.0017
3543.00,0.0018
3542.00,0.0018
3541.00,0.0018
3540.00,0.0018
3539.00,0.0018
3538.00,0.0018
3537.00,0.0017
3536.00,0.0017
3535.00,0.0017
3534.00,0.0017
3533.00,0.0017
3532.00,0.0018
3531.00,0.0018
3530.00,0.0018
3529.00,0.0018
3528.00,0.0018
3527.00,0.0019
3526.00,0.0019
3525.00,0.0019
3524.00,0.0019
3523.00,0.0019
3522.00,0.0019
3521.00,0.0019
3520.00,0.0019
3519.00,0.0019
3518.00,0.0019
3517.00,0.0019
3516.00,0.0019
3515.00,0.0019
3514.00,0.0019
3513.00,0.0019
3512.00,0.0019
3511.00,0.0019
3510.00,0.0019
3509.00,0.0019
3508.00,0.0019
3507.00,0.0019
3506.00,0.0019
3505.00,0.0019
3504.00,0.0019
3503.00,0.0019
3502.00,0.0019
3501.00,0.0020
3500.00,0.0020
3499.00,0.0020
3498.00,0.0019
3497.00,0.0019
3496.00,0.0019
3495.00,0.0019
3494.00,0.0020
3493.00,0.0020
3492.00,0.0020
3491.00,0.0020
3490.00,0.0020
3489.00,0.0020
3488.00,0.0020
3487.00,0.0020
3486.00,0.0020
3485.00,0.0020
3484.00,0.0020
3483.00,0.0020
3482.00,0.0020
3481.00,0.0020
3480.00,0.0020
3479.00,0.0020
3478.00,0.0020
3477.00,0.0020
3476.00,0.0020
3475.00,0.0020
3474.00,0.0020
3473.00,0.0020
3472.00,0.0021
3471.00,0.0021
3470.00,0.0021
3469.00,0.0021
3468.00,0.0021
3467.00,0.0021
3466.00,0.0021
3465.00,0.0021
3464.00,0.0021
3463.00,0.0021
3462.00,0.0021
3461.00,0.0021
3460.00,0.0021
3459.00,0.0021
3458.00,0.0021
3457.00,0.0021
3456.00,0.0021
3455.00,0.0021
3454.00,0.0021
3453.00,0.0021
3452.00,0.0021
3451.00,0.0021
3450.00,0.0021
3449.00,0.0021
3448.00,0.0021
3447.00,0.0022
3446.00,0.0022
3445.00,0.0022
3444.00,0.0022
3443.00,0.0022
3442.00,0.0022
3441.00,0.0022
3440.00,0.0022
3439.00,0.0022
3438.00,0.0022
3437.00,0.0021
3436.00,0.0021
3435.00,0.0021
3434.00,0.0021
3433.00,0.0021
3432.00,0.0021
3431.00,0.0021
3430.00,0.0021
3429.00,0.0021
3428.00,0.0021
3427.00,0.0021
3426.00,0.0021
3425.00,0.0021
3424.00,0.0021
3423.00,0.0021
3422.00,0.0021
3421.00,0.0021
3420.00,0.0021
3419.00,0.0021
3418.00,0.0021
3417.00,0.0021
3416.00,0.0021
3415.00,0.0021
3414.00,0.0021
3413.00,0.0021
3412.00,0.0021
3411.00,0.0021
3410.00,0.0021
3409.00,0.0021
3408.00,0.0021
3407.00,0.0021
3406.00,0.0021
3405.00,0.0021
3404.00,0.0021
3403.00,0.0021
3402.00,0.0021
3401.00,0.0021
3400.00,0.0021
3399.00,0.0021
3398.00,0.0021
3397.00,0.0021
3396.00,0.0021
3395.00,0.0021
3394.00,0.0021
3393.00,0.0021
3392.00,0.0021
3391.00,0.0021
3390.00,0.0021
3389.00,0.0021
3388.00,0.0021
3387.00,0.0021
3386.00,0.0021
3385.00,0.0021
3384.00,0.0021
3383.00,0.0021
3382.00,0.0021
3381.00,0.0021
3380.00,0.0022
3379.00,0.0022
3378.00,0.0022
3377.00,0.0022
3376.00,0.0021
3375.00,0.0021
3374.00,0.0021
3373.00,0.0021
3372.00,0.0021
3371.00,0.0021
3370.00,0.0021
3369.00,0.0021
3368.00,0.0021
3367.00,0.0021
3366.00,0.0021
3365.00,0.0021
3364.00,0.0021
3363.00,0.0021
3362.00,0.0021
3361.00,0.0021
3360.00,0.0021
3359.00,0.0021
3358.00,0.0021
3357.00,0.0021
3356.00,0.0021
3355.00,0.0021
3354.00,0.0021
3353.00,0.0021
3352.00,0.0021
3351.00,0.0021
3350.00,0.0021
3349.00,0.0021
3348.00,0.0021
3347.00,0.0021
3346.00,0.0021
3345.00,0.0021
3344.00,0.0021
3343.00,0.0021
3342.00,0.0021
3341.00,0.0022
3340.00,0.0022
3339.00,0.0022
3338.00,0.0021
3337.00,0.0021
3336.00,0.0021
3335.00,0.0021
3334.00,0.0021
3333.00,0.0021
3332.00,0.0021
3331.00,0.0021
3330.00,0.0021
3329.00,0.0021
3328.00,0.0021
3327.00,0.0021
3326.00,0.0021
3325.00,0.0021
3324.00,0.0021
3323.00,0.0021
3322.00,0.0021
3321.00,0.0021
3320.00,0.0021
3319.00,0.0021
3318.00,0.0021
3317.00,0.0021
3316.00,0.0021
3315.00,0.0021
3314.00,0.0021
3313.00,0.0021
3312.00,0.0021
3311.00,0.0021
3310.00,0.0021
3309.00,0.0021
3308.00,0.0021
3307.00,0.0021
3306.00,0.0021
3305.00,0.0021
3304.00,0.0021
3303.00,0.0021
3302.00,0.0021
3301.00,0.0021
3300.00,0.0021
3299.00,0.0021
3298.00,0.0021
3297.00,0.0021
3296.00,0.0021
3295.00,0.0021
3294.00,0.0021
3293.00,0.0021
3292.00,0.0021
3291.00,0.0021
3290.00,0.0021
3289.00,0.0021
3288.00,0.0021
3287.00,0.0021
3286.00,0.0021
3285.00,0.0021
3284.00,0.0021
3283.00,0.0021
3282.00,0.0021
3281.00,0.0021
3280.00,0.0021
3279.00,0.0021
3278.00,0.0021
3277.00,0.0021
3276.00,0.0021
3275.00,0.0021
3274.00,0.0021
3273.00,0.0021
3272.00,0.0021
3271.00,0.0021
3270.00,0.0021
3269.00,0.0021
3268.00,0.0021
3267.00,0.0021
3266.00,0.0021
3265.00,0.0021
3264.00,0.0021
3263.00,0.0021
3262.00,0.0020
3261.00,0.0020
3260.00,0.0020
3259.00,0.0020
3258.00,0.0020
3257.00,0.0020
3256.00,0.0020
3255.00,0.0020
3254.00,0.0020
3253.00,0.0020
3252.00,0.0020
3251.00,0.0020
3250.00,0.0020
3249.00,0.0020
3248.00,0.0020
3247.00,0.0020
3246.00,0.0020
3245.00,0.0020
3244.00,0.0020
3243.00,0.0020
3242.00,0.0020
3241.00,0.0019
3240.00,0.0019
3239.00,0.0019
3238.00,0.0019
3237.00,0.0019
3236.00,0.0019
3235.00,0.0019
3234.00,0.0019
3233.00,0.0020
3232.00,0.0020
3231.00,0.0020
3230.00,0.0019
3229.00,0.0019
3228.00,0.0019
3227.00,0.0019
3226.00,0.0019
3225.00,0.0020
3224.00,0.0020
3223.00,0.0020
3222.00,0.0020
3221.00,0.0020
3220.00,0.0020
3219.00,0.0020
3218.00,0.0020
3217.00,0.0020
3216.00,0.0020
3215.00,0.0020
3214.00,0.0020
3213.00,0.0020
3212.00,0.0020
3211.00,0.0020
3210.00,0.0020
3209.00,0.0020
3208.00,0.0020
3207.00,0.0021
3206.00,0.0021
3205.00,0.0021
3204.00,0.0021
3203.00,0.0021
3202.00,0.0021
3201.00,0.0021
3200.00,0.0021
3199.00,0.0021
3198.00,0.0021
3197.00,0.0021
3196.00,0.0021
3195.00,0.0021
3194.00,0.0020
3193.00,0.0020
3192.00,0.0020
3191.00,0.0020
3190.00,0.0020
3189.00,0.0020
3188.00,0.0020
3187.00,0.0020
3186.00,0.0020
3185.00,0.0020
3184.00,0.0020
3183.00,0.0020
3182.00,0.0020
3181.00,0.0020
3180.00,0.0020
3179.00,0.0020
3178.00,0.0019
3177.00,0.0019
3176.00,0.0019
3175.00,0.0019
3174.00,0.0020
3173.00,0.0020
3172.00,0.0020
3171.00,0.0020
3170.00,0.0021
3169.00,0.0021
3168.00,0.0021
3167.00,0.0021
3166.00,0.0022
3165.00,0.0022
3164.00,0.0022
3163.00,0.0022
3162.00,0.0022
3161.00,0.0022
3160.00,0.0021
3159.00,0.0021
3158.00,0.0021
3157.00,0.0021
3156.00,0.0021
3155.00,0.0020
3154.00,0.0020
3153.00,0.0020
3152.00,0.0020
3151.00,0.0020
3150.00,0.0020
3149.00,0.0020
3148.00,0.0020
3147.00,0.0020
3146.00,0.0020
3145.00,0.0019
3144.00,0.0019
3143.00,0.0020
3142.00,0.0020
3141.00,0.0020
3140.00,0.0020
3139.00,0.0020
3138.00,0.0020
3137.00,0.0020
3136.00,0.0020
3135.00,0.0020
3134.00,0.0020
3133.00,0.0020
3132.00,0.0020
3131.00,0.0020
3130.00,0.0020
3129.00,0.0021
3128.00,0.0021
3127.00,0.0021
3126.00,0.0021
3125.00,0.0021
3124.00,0.0022
3123.00,0.0022
3122.00,0.0022
3121.00,0.0022
3120.00,0.0023
3119.00,0.0023
3118.00,0.0024
3117.00,0.0025
3116.00,0.0026
3115.00,0.0027
3114.00,0.0028
3113.00,0.0030
3112.00,0.0032
3111.00,0.0034
3110.00,0.0036
3109.00,0.0039
3108.00,0.0041
3107.00,0.0044
3106.00,0.0046
3105.00,0.0048
3104.00,0.0049
3103.00,0.0049
3102.00,0.0049
3101.00,0.0048
3100.00,0.0048
3099.00,0.0047
3098.00,0.0047
3097.00,0.0046
3096.00,0.0046
3095.00,0.0047
3094.00,0.0049
3093.00,0.0052
3092.00,0.0056
3091.00,0.0061
3090.00,0.0067
3089.00,0.0074
3088.00,0.0082
3087.00,0.0090
3086.00,0.0098
3085.00,0.0106
3084.00,0.0112
3083.00,0.0116
3082.00,0.0116
3081.00,0.0115
3080.00,0.0111
3079.00,0.0105
3078.00,0.0100
3077.00,0.0095
3076.00,0.0090
3075.00,0.0087
3074.00,0.0086
3073.00,0.0086
3072.00,0.0087
3071.00,0.0089
3070.00,0.0093
3069.00,0.0098
3068.00,0.0104
3067.00,0.0112
3066.00,0.0120
3065.00,0.0129
3064.00,0.0138
3063.00,0.0147
3062.00,0.0154
3061.00,0.0158
3060.00,0.0160
3059.00,0.0159
3058.00,0.0155
3057.00,0.0149
3056.00,0.0140
3055.00,0.0131
3054.00,0.0122
3053.00,0.0114
3052.00,0.0107
3051.00,0.0100
3050.00,0.0095
3049.00,0.0090
3048.00,0.0087
3047.00,0.0084
3046.00,0.0082
3045.00,0.0082
3044.00,0.0083
3043.00,0.0085
3042.00,0.0088
3041.00,0.0092
3040.00,0.0097
3039.00,0.0103
3038.00,0.0110
3037.00,0.0119
3036.00,0.0131
3035.00,0.0144
3034.00,0.0160
3033.00,0.0178
3032.00,0.0198
3031.00,0.0220
3030.00,0.0242
3029.00,0.0264
3028.00,0.0284
3027.00,0.0298
3026.00,0.0307
3025.00,0.0307
3024.00,0.0300
3023.00,0.0284
3022.00,0.0262
3021.00,0.0237
3020.00,0.0211
3019.00,0.0185
3018.00,0.0162
3017.00,0.0141
3016.00,0.0124
3015.00,0.0110
3014.00,0.0099
3013.00,0.0090
3012.00,0.0083
3011.00,0.0078
3010.00,0.0074
3009.00,0.0072
3008.00,0.0071
3007.00,0.0071
3006.00,0.0073
3005.00,0.0074
3004.00,0.0076
3003.00,0.0077
3002.00,0.0077
3001.00,0.0076
3000.00,0.0072
2999.00,0.0068
2998.00,0.0062
2997.00,0.0055
2996.00,0.0049
2995.00,0.0043
2994.00,0.0038
2993.00,0.0034
2992.00,0.0031
2991.00,0.0028
2990.00,0.0027
2989.00,0.0025
2988.00,0.0024
2987.00,0.0023
2986.00,0.0021
2985.00,0.0018
2984.00,0.0015
2983.00,0.0011
2982.00,0.0009
2981.00,0.0008
2980.00,0.0009
2979.00,0.0011
2978.00,0.0014
2977.00,0.0016
2976.00,0.0017
2975.00,0.0018
2974.00,0.0018
2973.00,0.0018
2972.00,0.0019
2971.00,0.0020
2970.00,0.0022
2969.00,0.0024
2968.00,0.0027
2967.00,0.0030
2966.00,0.0032
2965.00,0.0034
2964.00,0.0037
2963.00,0.0039
2962.00,0.0042
2961.00,0.0045
2960.00,0.0048
2959.00,0.0052
2958.00,0.0055
2957.00,0.0059
2956.00,0.0063
2955.00,0.0067
2954.00,0.0072
2953.00,0.0077
2952.00,0.0082
2951.00,0.0088
2950.00,0.0093
2949.00,0.0100
2948.00,0.0107
2947.00,0.0114
2946.00,0.0122
2945.00,0.0130
2944.00,0.0139
2943.00,0.0148
2942.00,0.0158
2941.00,0.0168
2940.00,0.0179
2939.00,0.0190
2938.00,0.0202
2937.00,0.0214
2936.00,0.0227
2935.00,0.0240
2934.00,0.0253
2933.00,0.0266
2932.00,0.0279
2931.00,0.0292
2930.00,0.0304
2929.00,0.0315
2928.00,0.0326
2927.00,0.0335
2926.00,0.0342
2925.00,0.0348
2924.00,0.0353
2923.00,0.0355
2922.00,0.0356
2921.00,0.0355
2920.00,0.0353
2919.00,0.0350
2918.00,0.0345
2917.00,0.0339
2916.00,0.0333
2915.00,0.0326
2914.00,0.0318
2913.00,0.0310
2912.00,0.0301
2911.00,0.0292
2910.00,0.0283
2909.00,0.0274
2908.00,0.0265
2907.00,0.0255
2906.00,0.0246
2905.00,0.0237
2904.00,0.0227
2903.00,0.0218
2902.00,0.0208
2901.00,0.0199
2900.00,0.0190
2899.00,0.0181
2898.00,0.0173
2897.00,0.0165
2896.00,0.0158
2895.00,0.0151
2894.00,0.0145
2893.00,0.0140
2892.00,0.0135
2891.00,0.0130
2890.00,0.0126
2889.00,0.0123
2888.00,0.0119
2887.00,0.0116
2886.00,0.0113
2885.00,0.0110
2884.00,0.0107
2883.00,0.0104
2882.00,0.0102
2881.00,0.0100
2880.00,0.0098
2879.00,0.0096
2878.00,0.0094
2877.00,0.0092
2876.00,0.0090
2875.00,0.0088
2874.00,0.0086
2873.00,0.0084
2872.00,0.0083
2871.00,0.0083
2870.00,0.0082
2869.00,0.0083
2868.00,0.0084
2867.00,0.0085
2866.00,0.0087
2865.00,0.0090
2864.00,0.0093
2863.00,0.0096
2862.00,0.0100
2861.00,0.0105
2860.00,0.0110
2859.00,0.0116
2858.00,0.0121
2857.00,0.0127
2856.00,0.0133
2855.00,0.0138
2854.00,0.0143
2853.00,0.0147
2852.00,0.0151
2851.00,0.0154
2850.00,0.0155
2849.00,0.0156
2848.00,0.0155
2847.00,0.0153
2846.00,0.0148
2845.00,0.0143
2844.00,0.0136
2843.00,0.0128
2842.00,0.0119
2841.00,0.0110
2840.00,0.0101
2839.00,0.0092
2838.00,0.0083
2837.00,0.0076
2836.00,0.0070
2835.00,0.0064
2834.00,0.0059
2833.00,0.0055
2832.00,0.0052
2831.00,0.0049
2830.00,0.0047
2829.00,0.0046
2828.00,0.0044
2827.00,0.0043
2826.00,0.0042
2825.00,0.0041
2824.00,0.0041
2823.00,0.0040
2822.00,0.0039
2821.00,0.0039
2820.00,0.0038
2819.00,0.0038
2818.00,0.0037
2817.00,0.0037
2816.00,0.0037
2815.00,0.0037
2814.00,0.0036
2813.00,0.0036
2812.00,0.0036
2811.00,0.0036
2810.00,0.0036
2809.00,0.0036
2808.00,0.0036
2807.00,0.0035
2806.00,0.0035
2805.00,0.0035
2804.00,0.0035
2803.00,0.0034
2802.00,0.0034
2801.00,0.0034
2800.00,0.0033
2799.00,0.0033
2798.00,0.0033
2797.00,0.0032
2796.00,0.0032
2795.00,0.0032
2794.00,0.0032
2793.00,0.0032
2792.00,0.0031
2791.00,0.0031
2790.00,0.0031
2789.00,0.0031
2788.00,0.0031
2787.00,0.0031
2786.00,0.0031
2785.00,0.0031
2784.00,0.0031
2783.00,0.0031
2782.00,0.0031
2781.00,0.0030
2780.00,0.0030
2779.00,0.0030
2778.00,0.0030
2777.00,0.0030
2776.00,0.0030
2775.00,0.0030
2774.00,0.0029
2773.00,0.0029
2772.00,0.0029
2771.00,0.0029
2770.00,0.0029
2769.00,0.0029
2768.00,0.0029
2767.00,0.0028
2766.00,0.0028
2765.00,0.0028
2764.00,0.0028
2763.00,0.0028
2762.00,0.0028
2761.00,0.0028
2760.00,0.0028
2759.00,0.0028
2758.00,0.0028
2757.00,0.0028
2756.00,0.0028
2755.00,0.0028
2754.00,0.0027
2753.00,0.0027
2752.00,0.0027
2751.00,0.0027
2750.00,0.0027
2749.00,0.0027
2748.00,0.0027
2747.00,0.0027
2746.00,0.0027
2745.00,0.0027
2744.00,0.0027
2743.00,0.0027
2742.00,0.0027
2741.00,0.0027
2740.00,0.0027
2739.00,0.0027
2738.00,0.0027
2737.00,0.0027
2736.00,0.0027
2735.00,0.0027
2734.00,0.0027
2733.00,0.0027
2732.00,0.0028
2731.00,0.0028
2730.00,0.0027
2729.00,0.0028
2728.00,0.0028
2727.00,0.0028
2726.00,0.0028
2725.00,0.0028
2724.00,0.0028
2723.00,0.0027
2722.00,0.0027
2721.00,0.0028
2720.00,0.0028
2719.00,0.0028
2718.00,0.0028
2717.00,0.0028
2716.00,0.0028
2715.00,0.0028
2714.00,0.0027
2713.00,0.0027
2712.00,0.0027
2711.00,0.0027
2710.00,0.0027
2709.00,0.0027
2708.00,0.0028
2707.00,0.0028
2706.00,0.0028
2705.00,0.0028
2704.00,0.0028
2703.00,0.0028
2702.00,0.0027
2701.00,0.0027
2700.00,0.0027
2699.00,0.0027
2698.00,0.0027
2697.00,0.0027
2696.00,0.0027
2695.00,0.0027
2694.00,0.0027
2693.00,0.0027
2692.00,0.0027
2691.00,0.0027
2690.00,0.0027
2689.00,0.0027
2688.00,0.0028
2687.00,0.0028
2686.00,0.0028
2685.00,0.0028
2684.00,0.0027
2683.00,0.0027
2682.00,0.0027
2681.00,0.0027
2680.00,0.0027
2679.00,0.0027
2678.00,0.0027
2677.00,0.0027
2676.00,0.0027
2675.00,0.0027
2674.00,0.0027
2673.00,0.0027
2672.00,0.0027
2671.00,0.0027
2670.00,0.0027
2669.00,0.0027
2668.00,0.0027
2667.00,0.0027
2666.00,0.0028
2665.00,0.0028
2664.00,0.0029
2663.00,0.0029
2662.00,0.0030
2661.00,0.0030
2660.00,0.0031
2659.00,0.0031
2658.00,0.0031
2657.00,0.0031
2656.00,0.0031
2655.00,0.0031
2654.00,0.0031
2653.00,0.0031
2652.00,0.0032
2651.00,0.0032
2650.00,0.0032
2649.00,0.0032
2648.00,0.0032
2647.00,0.0032
2646.00,0.0032
2645.00,0.0032
2644.00,0.0032
2643.00,0.0032
2642.00,0.0032
2641.00,0.0032
2640.00,0.0032
2639.00,0.0032
2638.00,0.0032
2637.00,0.0032
2636.00,0.0032
2635.00,0.0033
2634.00,0.0033
2633.00,0.0033
2632.00,0.0033
2631.00,0.0033
2630.00,0.0033
2629.00,0.0032
2628.00,0.0032
2627.00,0.0032
2626.00,0.0031
2625.00,0.0031
2624.00,0.0031
2623.00,0.0030
2622.00,0.0030
2621.00,0.0030
2620.00,0.0030
2619.00,0.0030
2618.00,0.0030
2617.00,0.0030
2616.00,0.0029
2615.00,0.0029
2614.00,0.0029
2613.00,0.0029
2612.00,0.0029
2611.00,0.0029
2610.00,0.0029
2609.00,0.0029
2608.00,0.0030
2607.00,0.0030
2606.00,0.0030
2605.00,0.0030
2604.00,0.0030
2603.00,0.0029
2602.00,0.0029
2601.00,0.0029
2600.00,0.0029
2599.00,0.0029
2598.00,0.0028
2597.00,0.0028
2596.00,0.0028
2595.00,0.0028
2594.00,0.0027
2593.00,0.0027
2592.00,0.0027
2591.00,0.0027
2590.00,0.0027
2589.00,0.0027
2588.00,0.0027
2587.00,0.0027
2586.00,0.0027
2585.00,0.0027
2584.00,0.0027
2583.00,0.0028
2582.00,0.0027
2581.00,0.0027
2580.00,0.0027
2579.00,0.0027
2578.00,0.0027
2577.00,0.0026
2576.00,0.0026
2575.00,0.0026
2574.00,0.0026
2573.00,0.0025
2572.00,0.0025
2571.00,0.0025
2570.00,0.0025
2569.00,0.0025
2568.00,0.0025
2567.00,0.0024
2566.00,0.0024
2565.00,0.0024
2564.00,0.0024
2563.00,0.0024
2562.00,0.0024
2561.00,0.0024
2560.00,0.0024
2559.00,0.0024
2558.00,0.0025
2557.00,0.0025
2556.00,0.0024
2555.00,0.0024
2554.00,0.0024
2553.00,0.0024
2552.00,0.0023
2551.00,0.0023
2550.00,0.0023
2549.00,0.0023
2548.00,0.0023
2547.00,0.0023
2546.00,0.0024
2545.00,0.0024
2544.00,0.0024
2543.00,0.0024
2542.00,0.0024
2541.00,0.0024
2540.00,0.0024
2539.00,0.0024
2538.00,0.0024
2537.00,0.0023
2536.00,0.0023
2535.00,0.0023
2534.00,0.0023
2533.00,0.0023
2532.00,0.0023
2531.00,0.0023
2530.00,0.0023
2529.00,0.0023
2528.00,0.0023
2527.00,0.0023
2526.00,0.0023
2525.00,0.0023
2524.00,0.0024
2523.00,0.0024
2522.00,0.0024
2521.00,0.0023
2520.00,0.0023
2519.00,0.0023
2518.00,0.0023
2517.00,0.0022
2516.00,0.0022
2515.00,0.0022
2514.00,0.0022
2513.00,0.0022
2512.00,0.0021
2511.00,0.0022
2510.00,0.0022
2509.00,0.0022
2508.00,0.0022
2507.00,0.0022
2506.00,0.0022
2505.00,0.0022
2504.00,0.0022
2503.00,0.0022
2502.00,0.0022
2501.00,0.0022
2500.00,0.0022
2499.00,0.0022
2498.00,0.0023
2497.00,0.0022
2496.00,0.0022
2495.00,0.0022
2494.00,0.0022
2493.00,0.0022
2492.00,0.0022
2491.00,0.0022
2490.00,0.0023
2489.00,0.0022
2488.00,0.0022
2487.00,0.0022
2486.00,0.0022
2485.00,0.0022
2484.00,0.0022
2483.00,0.0022
2482.00,0.0022
2481.00,0.0021
2480.00,0.0021
2479.00,0.0021
2478.00,0.0021
2477.00,0.0021
2476.00,0.0021
2475.00,0.0021
2474.00,0.0021
2473.00,0.0021
2472.00,0.0021
2471.00,0.0020
2470.00,0.0020
2469.00,0.0020
2468.00,0.0020
2467.00,0.0020
2466.00,0.0020
2465.00,0.0020
2464.00,0.0020
2463.00,0.0020
2462.00,0.0020
2461.00,0.0021
2460.00,0.0021
2459.00,0.0021
2458.00,0.0021
2457.00,0.0022
2456.00,0.0022
2455.00,0.0022
2454.00,0.0022
2453.00,0.0022
2452.00,0.0022
2451.00,0.0022
2450.00,0.0022
2449.00,0.0021
2448.00,0.0021
2447.00,0.0021
2446.00,0.0021
2445.00,0.0021
2444.00,0.0020
2443.00,0.0020
2442.00,0.0020
2441.00,0.0019
2440.00,0.0019
2439.00,0.0019
2438.00,0.0019
2437.00,0.0019
2436.00,0.0019
2435.00,0.0019
2434.00,0.0019
2433.00,0.0018
2432.00,0.0018
2431.00,0.0018
2430.00,0.0018
2429.00,0.0018
2428.00,0.0018
2427.00,0.0018
2426.00,0.0018
2425.00,0.0018
2424.00,0.0018
2423.00,0.0018
2422.00,0.0018
2421.00,0.0018
2420.00,0.0018
2419.00,0.0018
2418.00,0.0018
2417.00,0.0018
2416.00,0.0018
2415.00,0.0018
2414.00,0.0018
2413.00,0.0018
2412.00,0.0018
2411.00,0.0017
2410.00,0.0017
2409.00,0.0017
2408.00,0.0016
2407.00,0.0016
2406.00,0.0015
2405.00,0.0016
2404.00,0.0016
2403.00,0.0016
2402.00,0.0016
2401.00,0.0016
2400.00,0.0016
2399.00,0.0016
2398.00,0.0016
2397.00,0.0016
2396.00,0.0016
2395.00,0.0016
2394.00,0.0016
2393.00,0.0016
2392.00,0.0016
2391.00,0.0016
2390.00,0.0016
2389.00,0.0016
2388.00,0.0016
2387.00,0.0016
2386.00,0.0016
2385.00,0.0016
2384.00,0.0016
2383.00,0.0016
2382.00,0.0016
2381.00,0.0016
2380.00,0.0016
2379.00,0.0016
2378.00,0.0016
2377.00,0.0017
2376.00,0.0017
2375.00,0.0017
2374.00,0.0017
2373.00,0.0016
2372.00,0.0016
2371.00,0.0016
2370.00,0.0016
2369.00,0.0016
2368.00,0.0017
2367.00,0.0017
2366.00,0.0017
2365.00,0.0017
2364.00,0.0018
2363.00,0.0018
2362.00,0.0019
2361.00,0.0019
2360.00,0.0019
2359.00,0.0019
2358.00,0.0019
2357.00,0.0018
2356.00,0.0018
2355.00,0.0017
2354.00,0.0017
2353.00,0.0017
2352.00,0.0017
2351.00,0.0016
2350.00,0.0014
2349.00,0.0012
2348.00,0.0013
2347.00,0.0016
2346.00,0.0021
2345.00,0.0025
2344.00,0.0026
2343.00,0.0025
2342.00,0.0023
2341.00,0.0023
2340.00,0.0022
2339.00,0.0022
2338.00,0.0023
2337.00,0.0023
2336.00,0.0023
2335.00,0.0023
2334.00,0.0022
2333.00,0.0022
2332.00,0.0022
2331.00,0.0022
2330.00,0.0023
2329.00,0.0024
2328.00,0.0027
2327.00,0.0030
2326.00,0.0033
2325.00,0.0035
2324.00,0.0034
2323.00,0.0033
2322.00,0.0031
2321.00,0.0030
2320.00,0.0028
2319.00,0.0028
2318.00,0.0027
2317.00,0.0027
2316.00,0.0027
2315.00,0.0027
2314.00,0.0027
2313.00,0.0027
2312.00,0.0027
2311.00,0.0027
2310.00,0.0027
2309.00,0.0027
2308.00,0.0027
2307.00,0.0026
2306.00,0.0026
2305.00,0.0025
2304.00,0.0025
2303.00,0.0025
2302.00,0.0025
2301.00,0.0025
2300.00,0.0025
2299.00,0.0026
2298.00,0.0026
2297.00,0.0027
2296.00,0.0027
2295.00,0.0028
2294.00,0.0028
2293.00,0.0029
2292.00,0.0030
2291.00,0.0031
2290.00,0.0031
2289.00,0.0032
2288.00,0.0032
2287.00,0.0032
2286.00,0.0031
2285.00,0.0030
2284.00,0.0029
2283.00,0.0028
2282.00,0.0027
2281.00,0.0027
2280.00,0.0027
2279.00,0.0027
2278.00,0.0026
2277.00,0.0026
2276.00,0.0026
2275.00,0.0025
2274.00,0.0025
2273.00,0.0025
2272.00,0.0025
2271.00,0.0025
2270.00,0.0025
2269.00,0.0025
2268.00,0.0024
2267.00,0.0023
2266.00,0.0023
2265.00,0.0022
2264.00,0.0022
2263.00,0.0023
2262.00,0.0023
2261.00,0.0024
2260.00,0.0024
2259.00,0.0025
2258.00,0.0024
2257.00,0.0023
2256.00,0.0021
2255.00,0.0020
2254.00,0.0020
2253.00,0.0021
2252.00,0.0021
2251.00,0.0022
2250.00,0.0022
2249.00,0.0022
2248.00,0.0022
2247.00,0.0022
2246.00,0.0022
2245.00,0.0022
2244.00,0.0022
2243.00,0.0022
2242.00,0.0022
2241.00,0.0022
2240.00,0.0022
2239.00,0.0022
2238.00,0.0022
2237.00,0.0022
2236.00,0.0021
2235.00,0.0021
2234.00,0.0021
2233.00,0.0021
2232.00,0.0022
2231.00,0.0021
2230.00,0.0021
2229.00,0.0020
2228.00,0.0020
2227.00,0.0020
2226.00,0.0020
2225.00,0.0019
2224.00,0.0018
2223.00,0.0018
2222.00,0.0018
2221.00,0.0018
2220.00,0.0018
2219.00,0.0018
2218.00,0.0018
2217.00,0.0017
2216.00,0.0017
2215.00,0.0017
2214.00,0.0017
2213.00,0.0017
2212.00,0.0017
2211.00,0.0016
2210.00,0.0016
2209.00,0.0016
2208.00,0.0016
2207.00,0.0016
2206.00,0.0016
2205.00,0.0017
2204.00,0.0017
2203.00,0.0017
2202.00,0.0017
2201.00,0.0017
2200.00,0.0018
2199.00,0.0019
2198.00,0.0020
2197.00,0.0021
2196.00,0.0021
2195.00,0.0021
2194.00,0.0021
2193.00,0.0021
2192.00,0.0021
2191.00,0.0021
2190.00,0.0020
2189.00,0.0020
2188.00,0.0021
2187.00,0.0021
2186.00,0.0021
2185.00,0.0020
2184.00,0.0018
2183.00,0.0016
2182.00,0.0015
2181.00,0.0014
2180.00,0.0014
2179.00,0.0014
2178.00,0.0014
2177.00,0.0013
2176.00,0.0011
2175.00,0.0011
2174.00,0.0012
2173.00,0.0014
2172.00,0.0016
2171.00,0.0018
2170.00,0.0021
2169.00,0.0023
2168.00,0.0025
2167.00,0.0026
2166.00,0.0027
2165.00,0.0029
2164.00,0.0031
2163.00,0.0031
2162.00,0.0026
2161.00,0.0016
2160.00,0.0001
2159.00,-0.0011
2158.00,-0.0016
2157.00,-0.0016
2156.00,-0.0013
2155.00,-0.0010
2154.00,-0.0008
2153.00,-0.0006
2152.00,-0.0004
2151.00,-0.0003
2150.00,-0.0003
2149.00,-0.0004
2148.00,-0.0004
2147.00,-0.0005
2146.00,-0.0005
2145.00,-0.0005
2144.00,-0.0005
2143.00,-0.0005
2142.00,-0.0004
2141.00,-0.0003
2140.00,-0.0002
2139.00,-0.0002
2138.00,-0.0003
2137.00,-0.0005
2136.00,-0.0007
2135.00,-0.0009
2134.00,-0.0010
2133.00,-0.0009
2132.00,-0.0007
2131.00,-0.0004
2130.00,-0.0002
2129.00,0.0001
2128.00,0.0003
2127.00,0.0004
2126.00,0.0005
2125.00,0.0005
2124.00,0.0006
2123.00,0.0007
2122.00,0.0008
2121.00,0.0009
2120.00,0.0010
2119.00,0.0011
2118.00,0.0011
2117.00,0.0012
2116.00,0.0013
2115.00,0.0014
2114.00,0.0014
2113.00,0.0014
2112.00,0.0015
2111.00,0.0015
2110.00,0.0015
2109.00,0.0015
2108.00,0.0014
2107.00,0.0014
2106.00,0.0013
2105.00,0.0012
2104.00,0.0012
2103.00,0.0013
2102.00,0.0013
2101.00,0.0013
2100.00,0.0012
2099.00,0.0012
2098.00,0.0011
2097.00,0.0010
2096.00,0.0009
2095.00,0.0008
2094.00,0.0009
2093.00,0.0010
2092.00,0.0011
2091.00,0.0012
2090.00,0.0013
2089.00,0.0014
2088.00,0.0014
2087.00,0.0015
2086.00,0.0016
2085.00,0.0015
2084.00,0.0015
2083.00,0.0016
2082.00,0.0017
2081.00,0.0017
2080.00,0.0018
2079.00,0.0018
2078.00,0.0017
2077.00,0.0017
2076.00,0.0017
2075.00,0.0017
2074.00,0.0017
2073.00,0.0016
2072.00,0.0015
2071.00,0.0014
2070.00,0.0013
2069.00,0.0013
2068.00,0.0013
2067.00,0.0012
2066.00,0.0012
2065.00,0.0012
2064.00,0.0011
2063.00,0.0011
2062.00,0.0011
2061.00,0.0011
2060.00,0.0011
2059.00,0.0011
2058.00,0.0012
2057.00,0.0012
2056.00,0.0012
2055.00,0.0013
2054.00,0.0015
2053.00,0.0019
2052.00,0.0022
2051.00,0.0023
2050.00,0.0021
2049.00,0.0018
2048.00,0.0015
2047.00,0.0014
2046.00,0.0014
2045.00,0.0013
2044.00,0.0013
2043.00,0.0013
2042.00,0.0012
2041.00,0.0011
2040.00,0.0010
2039.00,0.0011
2038.00,0.0013
2037.00,0.0015
2036.00,0.0015
2035.00,0.0014
2034.00,0.0011
2033.00,0.0010
2032.00,0.0008
2031.00,0.0008
2030.00,0.0008
2029.00,0.0008
2028.00,0.0007
2027.00,0.0006
2026.00,0.0004
2025.00,0.0004
2024.00,0.0004
2023.00,0.0005
2022.00,0.0006
2021.00,0.0007
2020.00,0.0007
2019.00,0.0006
2018.00,0.0004
2017.00,0.0003
2016.00,0.0002
2015.00,0.0002
2014.00,0.0004
2013.00,0.0005
2012.00,0.0007
2011.00,0.0008
2010.00,0.0007
2009.00,0.0004
2008.00,0.0000
2007.00,-0.0002
2006.00,-0.0002
2005.00,-0.0001
2004.00,0.0001
2003.00,0.0003
2002.00,0.0005
2001.00,0.0005
2000.00,0.0007
1999.00,0.0009
1998.00,0.0010
1997.00,0.0011
1996.00,0.0012
1995.00,0.0012
1994.00,0.0013
1993.00,0.0015
1992.00,0.0018
1991.00,0.0020
1990.00,0.0020
1989.00,0.0021
1988.00,0.0021
1987.00,0.0022
1986.00,0.0023
1985.00,0.0023
1984.00,0.0024
1983.00,0.0026
1982.00,0.0028
1981.00,0.0030
1980.00,0.0029
1979.00,0.0024
1978.00,0.0017
1977.00,0.0011
1976.00,0.0008
1975.00,0.0008
1974.00,0.0009
1973.00,0.0010
1972.00,0.0011
1971.00,0.0013
1970.00,0.0015
1969.00,0.0017
1968.00,0.0019
1967.00,0.0020
1966.00,0.0021
1965.00,0.0021
1964.00,0.0022
1963.00,0.0023
1962.00,0.0022
1961.00,0.0022
1960.00,0.0022
1959.00,0.0022
1958.00,0.0024
1957.00,0.0026
1956.00,0.0029
1955.00,0.0031
1954.00,0.0033
1953.00,0.0035
1952.00,0.0036
1951.00,0.0038
1950.00,0.0039
1949.00,0.0040
1948.00,0.0042
1947.00,0.0044
1946.00,0.0046
1945.00,0.0047
1944.00,0.0048
1943.00,0.0048
1942.00,0.0048
1941.00,0.0047
1940.00,0.0046
1939.00,0.0044
1938.00,0.0042
1937.00,0.0039
1936.00,0.0037
1935.00,0.0034
1934.00,0.0032
1933.00,0.0029
1932.00,0.0027
1931.00,0.0026
1930.00,0.0024
1929.00,0.0023
1928.00,0.0022
1927.00,0.0021
1926.00,0.0020
1925.00,0.0018
1924.00,0.0017
1923.00,0.0017
1922.00,0.0017
1921.00,0.0018
1920.00,0.0017
1919.00,0.0017
1918.00,0.0016
1917.00,0.0015
1916.00,0.0014
1915.00,0.0014
1914.00,0.0014
1913.00,0.0014
1912.00,0.0014
1911.00,0.0015
1910.00,0.0015
1909.00,0.0015
1908.00,0.0015
1907.00,0.0015
1906.00,0.0015
1905.00,0.0015
1904.00,0.0016
1903.00,0.0017
1902.00,0.0018
1901.00,0.0019
1900.00,0.0020
1899.00,0.0020
1898.00,0.0021
1897.00,0.0022
1896.00,0.0023
1895.00,0.0024
1894.00,0.0026
1893.00,0.0027
1892.00,0.0029
1891.00,0.0030
1890.00,0.0031
1889.00,0.0032
1888.00,0.0033
1887.00,0.0034
1886.00,0.0034
1885.00,0.0035
1884.00,0.0036
1883.00,0.0037
1882.00,0.0038
1881.00,0.0039
1880.00,0.0040
1879.00,0.0041
1878.00,0.0042
1877.00,0.0043
1876.00,0.0043
1875.00,0.0044
1874.00,0.0045
1873.00,0.0046
1872.00,0.0046
1871.00,0.0047
1870.00,0.0047
1869.00,0.0046
1868.00,0.0046
1867.00,0.0045
1866.00,0.0044
1865.00,0.0042
1864.00,0.0041
1863.00,0.0039
1862.00,0.0038
1861.00,0.0036
1860.00,0.0034
1859.00,0.0031
1858.00,0.0029
1857.00,0.0027
1856.00,0.0026
1855.00,0.0024
1854.00,0.0023
1853.00,0.0022
1852.00,0.0021
1851.00,0.0020
1850.00,0.0020
1849.00,0.0019
1848.00,0.0018
1847.00,0.0018
1846.00,0.0018
1845.00,0.0017
1844.00,0.0017
1843.00,0.0017
1842.00,0.0017
1841.00,0.0017
1840.00,0.0017
1839.00,0.0018
1838.00,0.0019
1837.00,0.0019
1836.00,0.0019
1835.00,0.0019
1834.00,0.0020
1833.00,0.0020
1832.00,0.0020
1831.00,0.0021
1830.00,0.0022
1829.00,0.0023
1828.00,0.0024
1827.00,0.0025
1826.00,0.0026
1825.00,0.0027
1824.00,0.0028
1823.00,0.0030
1822.00,0.0031
1821.00,0.0032
1820.00,0.0032
1819.00,0.0032
1818.00,0.0033
1817.00,0.0034
1816.00,0.0036
1815.00,0.0037
1814.00,0.0039
1813.00,0.0041
1812.00,0.0043
1811.00,0.0044
1810.00,0.0046
1809.00,0.0047
1808.00,0.0049
1807.00,0.0050
1806.00,0.0052
1805.00,0.0053
1804.00,0.0054
1803.00,0.0054
1802.00,0.0054
1801.00,0.0054
1800.00,0.0053
1799.00,0.0052
1798.00,0.0051
1797.00,0.0049
1796.00,0.0048
1795.00,0.0046
1794.00,0.0043
1793.00,0.0041
1792.00,0.0039
1791.00,0.0037
1790.00,0.0036
1789.00,0.0034
1788.00,0.0033
1787.00,0.0031
1786.00,0.0031
1785.00,0.0030
1784.00,0.0030
1783.00,0.0030
1782.00,0.0030
1781.00,0.0030
1780.00,0.0030
1779.00,0.0031
1778.00,0.0031
1777.00,0.0031
1776.00,0.0031
1775.00,0.0031
1774.00,0.0032
1773.00,0.0032
1772.00,0.0032
1771.00,0.0032
1770.00,0.0032
1769.00,0.0033
1768.00,0.0033
1767.00,0.0034
1766.00,0.0035
1765.00,0.0035
1764.00,0.0036
1763.00,0.0037
1762.00,0.0038
1761.00,0.0040
1760.00,0.0041
1759.00,0.0041
1758.00,0.0043
1757.00,0.0044
1756.00,0.0047
1755.00,0.0048
1754.00,0.0050
1753.00,0.0051
1752.00,0.0053
1751.00,0.0054
1750.00,0.0056
1749.00,0.0057
1748.00,0.0057
1747.00,0.0058
1746.00,0.0059
1745.00,0.0059
1744.00,0.0059
1743.00,0.0060
1742.00,0.0060
1741.00,0.0059
1740.00,0.0059
1739.00,0.0058
1738.00,0.0057
1737.00,0.0057
1736.00,0.0057
1735.00,0.0056
1734.00,0.0055
1733.00,0.0054
1732.00,0.0052
1731.00,0.0051
1730.00,0.0050
1729.00,0.0049
1728.00,0.0049
1727.00,0.0049
1726.00,0.0048
1725.00,0.0048
1724.00,0.0047
1723.00,0.0047
1722.00,0.0047
1721.00,0.0046
1720.00,0.0046
1719.00,0.0046
1718.00,0.0046
1717.00,0.0046
1716.00,0.0046
1715.00,0.0046
1714.00,0.0047
1713.00,0.0048
1712.00,0.0049
1711.00,0.0049
1710.00,0.0050
1709.00,0.0051
1708.00,0.0051
1707.00,0.0052
1706.00,0.0052
1705.00,0.0052
1704.00,0.0052
1703.00,0.0052
1702.00,0.0052
1701.00,0.0052
1700.00,0.0052
1699.00,0.0052
1698.00,0.0050
1697.00,0.0048
1696.00,0.0047
1695.00,0.0047
1694.00,0.0047
1693.00,0.0046
1692.00,0.0046
1691.00,0.0046
1690.00,0.0047
1689.00,0.0047
1688.00,0.0048
1687.00,0.0048
1686.00,0.0048
1685.00,0.0048
1684.00,0.0049
1683.00,0.0050
1682.00,0.0050
1681.00,0.0050
1680.00,0.0050
1679.00,0.0050
1678.00,0.0050
1677.00,0.0050
1676.00,0.0050
1675.00,0.0050
1674.00,0.0050
1673.00,0.0050
1672.00,0.0049
1671.00,0.0049
1670.00,0.0049
1669.00,0.0049
1668.00,0.0050
1667.00,0.0049
1666.00,0.0049
1665.00,0.0048
1664.00,0.0048
1663.00,0.0047
1662.00,0.0047
1661.00,0.0046
1660.00,0.0045
1659.00,0.0045
1658.00,0.0044
1657.00,0.0044
1656.00,0.0044
1655.00,0.0044
1654.00,0.0043
1653.00,0.0043
1652.00,0.0042
1651.00,0.0041
1650.00,0.0040
1649.00,0.0039
1648.00,0.0038
1647.00,0.0037
1646.00,0.0036
1645.00,0.0036
1644.00,0.0036
1643.00,0.0036
1642.00,0.0036
1641.00,0.0036
1640.00,0.0036
1639.00,0.0036
1638.00,0.0035
1637.00,0.0035
1636.00,0.0035
1635.00,0.0036
1634.00,0.0036
1633.00,0.0036
1632.00,0.0036
1631.00,0.0037
1630.00,0.0038
1629.00,0.0038
1628.00,0.0039
1627.00,0.0040
1626.00,0.0041
1625.00,0.0041
1624.00,0.0042
1623.00,0.0043
1622.00,0.0044
1621.00,0.0044
1620.00,0.0045
1619.00,0.0046
1618.00,0.0048
1617.00,0.0050
1616.00,0.0052
1615.00,0.0055
1614.00,0.0058
1613.00,0.0062
1612.00,0.0068
1611.00,0.0076
1610.00,0.0088
1609.00,0.0105
1608.00,0.0127
1607.00,0.0154
1606.00,0.0187
1605.00,0.0222
1604.00,0.0257
1603.00,0.0289
1602.00,0.0310
1601.00,0.0316
1600.00,0.0307
1599.00,0.0283
1598.00,0.0251
1597.00,0.0218
1596.00,0.0187
1595.00,0.0161
1594.00,0.0140
1593.00,0.0125
1592.00,0.0113
1591.00,0.0103
1590.00,0.0097
1589.00,0.0094
1588.00,0.0096
1587.00,0.0102
1586.00,0.0112
1585.00,0.0123
1584.00,0.0131
1583.00,0.0133
1582.00,0.0127
1581.00,0.0115
1580.00,0.0100
1579.00,0.0087
1578.00,0.0075
1577.00,0.0066
1576.00,0.0058
1575.00,0.0053
1574.00,0.0049
1573.00,0.0046
1572.00,0.0044
1571.00,0.0042
1570.00,0.0040
1569.00,0.0039
1568.00,0.0038
1567.00,0.0037
1566.00,0.0036
1565.00,0.0035
1564.00,0.0035
1563.00,0.0035
1562.00,0.0035
1561.00,0.0035
1560.00,0.0036
1559.00,0.0036
1558.00,0.0036
1557.00,0.0037
1556.00,0.0037
1555.00,0.0038
1554.00,0.0039
1553.00,0.0041
1552.00,0.0042
1551.00,0.0043
1550.00,0.0045
1549.00,0.0047
1548.00,0.0049
1547.00,0.0050
1546.00,0.0052
1545.00,0.0053
1544.00,0.0054
1543.00,0.0054
1542.00,0.0055
1541.00,0.0055
1540.00,0.0055
1539.00,0.0056
1538.00,0.0057
1537.00,0.0057
1536.00,0.0056
1535.00,0.0056
1534.00,0.0055
1533.00,0.0054
1532.00,0.0052
1531.00,0.0051
1530.00,0.0049
1529.00,0.0047
1528.00,0.0045
1527.00,0.0044
1526.00,0.0042
1525.00,0.0041
1524.00,0.0040
1523.00,0.0039
1522.00,0.0039
1521.00,0.0038
1520.00,0.0039
1519.00,0.0039
1518.00,0.0039
1517.00,0.0039
1516.00,0.0040
1515.00,0.0041
1514.00,0.0043
1513.00,0.0044
1512.00,0.0045
1511.00,0.0047
1510.00,0.0048
1509.00,0.0049
1508.00,0.0051
1507.00,0.0056
1506.00,0.0062
1505.00,0.0069
1504.00,0.0076
1503.00,0.0084
1502.00,0.0096
1501.00,0.0113
1500.00,0.0139
1499.00,0.0179
1498.00,0.0245
1497.00,0.0348
1496.00,0.0482
1495.00,0.0621
1494.00,0.0730
1493.00,0.0790
1492.00,0.0785
1491.00,0.0713
1490.00,0.0594
1489.00,0.0469
1488.00,0.0370
1487.00,0.0299
1486.00,0.0247
1485.00,0.0207
1484.00,0.0177
1483.00,0.0153
1482.00,0.0133
1481.00,0.0118
1480.00,0.0108
1479.00,0.0099
1478.00,0.0093
1477.00,0.0089
1476.00,0.0085
1475.00,0.0081
1474.00,0.0079
1473.00,0.0077
1472.00,0.0077
1471.00,0.0077
1470.00,0.0078
1469.00,0.0079
1468.00,0.0080
1467.00,0.0082
1466.00,0.0085
1465.00,0.0088
1464.00,0.0094
1463.00,0.0100
1462.00,0.0108
1461.00,0.0119
1460.00,0.0135
1459.00,0.0163
1458.00,0.0222
1457.00,0.0326
1456.00,0.0460
1455.00,0.0586
1454.00,0.0691
1453.00,0.0767
1452.00,0.0802
1451.00,0.0790
1450.00,0.0743
1449.00,0.0680
1448.00,0.0616
1447.00,0.0560
1446.00,0.0514
1445.00,0.0475
1444.00,0.0437
1443.00,0.0400
1442.00,0.0367
1441.00,0.0338
1440.00,0.0312
1439.00,0.0289
1438.00,0.0265
1437.00,0.0240
1436.00,0.0214
1435.00,0.0191
1434.00,0.0174
1433.00,0.0158
1432.00,0.0143
1431.00,0.0130
1430.00,0.0119
1429.00,0.0109
1428.00,0.0101
1427.00,0.0095
1426.00,0.0090
1425.00,0.0086
1424.00,0.0082
1423.00,0.0079
1422.00,0.0078
1421.00,0.0076
1420.00,0.0074
1419.00,0.0073
1418.00,0.0071
1417.00,0.0070
1416.00,0.0068
1415.00,0.0067
1414.00,0.0066
1413.00,0.0065
1412.00,0.0064
1411.00,0.0063
1410.00,0.0062
1409.00,0.0062
1408.00,0.0061
1407.00,0.0061
1406.00,0.0060
1405.00,0.0060
1404.00,0.0059
1403.00,0.0059
1402.00,0.0058
1401.00,0.0058
1400.00,0.0058
1399.00,0.0058
1398.00,0.0059
1397.00,0.0059
1396.00,0.0060
1395.00,0.0062
1394.00,0.0066
1393.00,0.0069
1392.00,0.0073
1391.00,0.0077
1390.00,0.0082
1389.00,0.0087
1388.00,0.0093
1387.00,0.0100
1386.00,0.0106
1385.00,0.0111
1384.00,0.0116
1383.00,0.0120
1382.00,0.0125
1381.00,0.0130
1380.00,0.0134
1379.00,0.0139
1378.00,0.0144
1377.00,0.0149
1376.00,0.0153
1375.00,0.0158
1374.00,0.0161
1373.00,0.0164
1372.00,0.0165
1371.00,0.0165
1370.00,0.0165
1369.00,0.0165
1368.00,0.0164
1367.00,0.0164
1366.00,0.0163
1365.00,0.0162
1364.00,0.0161
1363.00,0.0161
1362.00,0.0160
1361.00,0.0158
1360.00,0.0156
1359.00,0.0154
1358.00,0.0151
1357.00,0.0149
1356.00,0.0148
1355.00,0.0146
1354.00,0.0146
1353.00,0.0145
1352.00,0.0145
1351.00,0.0144
1350.00,0.0144
1349.00,0.0143
1348.00,0.0142
1347.00,0.0140
1346.00,0.0139
1345.00,0.0136
1344.00,0.0134
1343.00,0.0131
1342.00,0.0129
1341.00,0.0126
1340.00,0.0124
1339.00,0.0123
1338.00,0.0123
1337.00,0.0124
1336.00,0.0126
1335.00,0.0129
1334.00,0.0132
1333.00,0.0136
1332.00,0.0140
1331.00,0.0143
1330.00,0.0146
1329.00,0.0148
1328.00,0.0148
1327.00,0.0147
1326.00,0.0146
1325.00,0.0144
1324.00,0.0142
1323.00,0.0140
1322.00,0.0138
1321.00,0.0138
1320.00,0.0138
1319.00,0.0138
1318.00,0.0139
1317.00,0.0141
1316.00,0.0143
1315.00,0.0145
1314.00,0.0148
1313.00,0.0149
1312.00,0.0149
1311.00,0.0149
1310.00,0.0148
1309.00,0.0146
1308.00,0.0144
1307.00,0.0141
1306.00,0.0139
1305.00,0.0136
1304.00,0.0133
1303.00,0.0130
1302.00,0.0127
1301.00,0.0124
1300.00,0.0122
1299.00,0.0120
1298.00,0.0118
1297.00,0.0117
1296.00,0.0115
1295.00,0.0114
1294.00,0.0114
1293.00,0.0113
1292.00,0.0112
1291.00,0.0111
1290.00,0.0110
1289.00,0.0109
1288.00,0.0108
1287.00,0.0107
1286.00,0.0107
1285.00,0.0107
1284.00,0.0107
1283.00,0.0107
1282.00,0.0107
1281.00,0.0106
1280.00,0.0105
1279.00,0.0103
1278.00,0.0101
1277.00,0.0099
1276.00,0.0096
1275.00,0.0093
1274.00,0.0090
1273.00,0.0087
1272.00,0.0085
1271.00,0.0082
1270.00,0.0080
1269.00,0.0078
1268.00,0.0077
1267.00,0.0075
1266.00,0.0074
1265.00,0.0073
1264.00,0.0072
1263.00,0.0072
1262.00,0.0071
1261.00,0.0070
1260.00,0.0070
1259.00,0.0069
1258.00,0.0069
1257.00,0.0069
1256.00,0.0069
1255.00,0.0069
1254.00,0.0070
1253.00,0.0070
1252.00,0.0071
1251.00,0.0071
1250.00,0.0072
1249.00,0.0073
1248.00,0.0074
1247.00,0.0075
1246.00,0.0075
1245.00,0.0076
1244.00,0.0076
1243.00,0.0076
1242.00,0.0076
1241.00,0.0076
1240.00,0.0076
1239.00,0.0076
1238.00,0.0076
1237.00,0.0076
1236.00,0.0076
1235.00,0.0076
1234.00,0.0076
1233.00,0.0077
1232.00,0.0078
1231.00,0.0079
1230.00,0.0081
1229.00,0.0082
1228.00,0.0083
1227.00,0.0085
1226.00,0.0086
1225.00,0.0087
1224.00,0.0087
1223.00,0.0088
1222.00,0.0089
1221.00,0.0090
1220.00,0.0090
1219.00,0.0090
1218.00,0.0091
1217.00,0.0091
1216.00,0.0092
1215.00,0.0092
1214.00,0.0093
1213.00,0.0093
1212.00,0.0094
1211.00,0.0095
1210.00,0.0096
1209.00,0.0097
1208.00,0.0098
1207.00,0.0100
1206.00,0.0102
1205.00,0.0105
1204.00,0.0107
1203.00,0.0110
1202.00,0.0113
1201.00,0.0116
1200.00,0.0118
1199.00,0.0121
1198.00,0.0123
1197.00,0.0124
1196.00,0.0125
1195.00,0.0126
1194.00,0.0127
1193.00,0.0127
1192.00,0.0127
1191.00,0.0128
1190.00,0.0129
1189.00,0.0130
1188.00,0.0133
1187.00,0.0136
1186.00,0.0142
1185.00,0.0149
1184.00,0.0156
1183.00,0.0163
1182.00,0.0168
1181.00,0.0169
1180.00,0.0164
1179.00,0.0156
1178.00,0.0144
1177.00,0.0132
1176.00,0.0121
1175.00,0.0112
1174.00,0.0105
1173.00,0.0100
1172.00,0.0096
1171.00,0.0093
1170.00,0.0092
1169.00,0.0091
1168.00,0.0090
1167.00,0.0089
1166.00,0.0090
1165.00,0.0090
1164.00,0.0092
1163.00,0.0094
1162.00,0.0098
1161.00,0.0104
1160.00,0.0112
1159.00,0.0122
1158.00,0.0134
1157.00,0.0146
1156.00,0.0156
1155.00,0.0161
1154.00,0.0160
1153.00,0.0154
1152.00,0.0144
1151.00,0.0130
1150.00,0.0117
1149.00,0.0106
1148.00,0.0096
1147.00,0.0090
1146.00,0.0085
1145.00,0.0081
1144.00,0.0077
1143.00,0.0074
1142.00,0.0072
1141.00,0.0070
1140.00,0.0068
1139.00,0.0066
1138.00,0.0066
1137.00,0.0065
1136.00,0.0065
1135.00,0.0065
1134.00,0.0065
1133.00,0.0065
1132.00,0.0065
1131.00,0.0064
1130.00,0.0065
1129.00,0.0066
1128.00,0.0066
1127.00,0.0067
1126.00,0.0069
1125.00,0.0070
1124.00,0.0072
1123.00,0.0074
1122.00,0.0077
1121.00,0.0079
1120.00,0.0082
1119.00,0.0084
1118.00,0.0088
1117.00,0.0091
1116.00,0.0093
1115.00,0.0096
1114.00,0.0097
1113.00,0.0099
1112.00,0.0099
1111.00,0.0099
1110.00,0.0099
1109.00,0.0099
1108.00,0.0098
1107.00,0.0097
1106.00,0.0097
1105.00,0.0097
1104.00,0.0098
1103.00,0.0098
1102.00,0.0099
1101.00,0.0100
1100.00,0.0100
1099.00,0.0101
1098.00,0.0101
1097.00,0.0102
1096.00,0.0102
1095.00,0.0103
1094.00,0.0105
1093.00,0.0106
1092.00,0.0107
1091.00,0.0109
1090.00,0.0111
1089.00,0.0113
1088.00,0.0115
1087.00,0.0118
1086.00,0.0121
1085.00,0.0125
1084.00,0.0130
1083.00,0.0135
1082.00,0.0141
1081.00,0.0146
1080.00,0.0151
1079.00,0.0157
1078.00,0.0163
1077.00,0.0170
1076.00,0.0178
1075.00,0.0186
1074.00,0.0196
1073.00,0.0206
1072.00,0.0215
1071.00,0.0223
1070.00,0.0229
1069.00,0.0232
1068.00,0.0231
1067.00,0.0228
1066.00,0.0222
1065.00,0.0214
1064.00,0.0204
1063.00,0.0195
1062.00,0.0186
1061.00,0.0179
1060.00,0.0171
1059.00,0.0164
1058.00,0.0159
1057.00,0.0154
1056.00,0.0149
1055.00,0.0144
1054.00,0.0141
1053.00,0.0138
1052.00,0.0134
1051.00,0.0131
1050.00,0.0129
1049.00,0.0126
1048.00,0.0124
1047.00,0.0122
1046.00,0.0121
1045.00,0.0120
1044.00,0.0119
1043.00,0.0119
1042.00,0.0120
1041.00,0.0122
1040.00,0.0126
1039.00,0.0132
1038.00,0.0142
1037.00,0.0157
1036.00,0.0178
1035.00,0.0206
1034.00,0.0241
1033.00,0.0280
1032.00,0.0319
1031.00,0.0356
1030.00,0.0386
1029.00,0.0407
1028.00,0.0414
1027.00,0.0407
1026.00,0.0388
1025.00,0.0361
1024.00,0.0331
1023.00,0.0303
1022.00,0.0280
1021.00,0.0261
1020.00,0.0244
1019.00,0.0230
1018.00,0.0218
1017.00,0.0207
1016.00,0.0197
1015.00,0.0188
1014.00,0.0182
1013.00,0.0176
1012.00,0.0170
1011.00,0.0166
1010.00,0.0163
1009.00,0.0162
1008.00,0.0161
1007.00,0.0163
1006.00,0.0168
1005.00,0.0173
1004.00,0.0176
1003.00,0.0176
1002.00,0.0172
1001.00,0.0164
1000.00,0.0154
999.00,0.0144
998.00,0.0136
997.00,0.0131
996.00,0.0127
995.00,0.0125
994.00,0.0124
993.00,0.0124
992.00,0.0125
991.00,0.0126
990.00,0.0128
989.00,0.0130
988.00,0.0133
987.00,0.0136
986.00,0.0140
985.00,0.0144
984.00,0.0148
983.00,0.0152
982.00,0.0155
981.00,0.0157
980.00,0.0158
979.00,0.0157
978.00,0.0154
977.00,0.0151
976.00,0.0146
975.00,0.0142
974.00,0.0139
973.00,0.0138
972.00,0.0138
971.00,0.0140
970.00,0.0144
969.00,0.0149
968.00,0.0154
967.00,0.0159
966.00,0.0164
965.00,0.0166
964.00,0.0167
963.00,0.0164
962.00,0.0160
961.00,0.0153
960.00,0.0145
959.00,0.0137
958.00,0.0130
957.00,0.0124
956.00,0.0119
955.00,0.0116
954.00,0.0114
953.00,0.0113
952.00,0.0113
951.00,0.0113
950.00,0.0115
949.00,0.0117
948.00,0.0119
947.00,0.0122
946.00,0.0126
945.00,0.0128
944.00,0.0129
943.00,0.0130
942.00,0.0129
941.00,0.0128
940.00,0.0125
939.00,0.0121
938.00,0.0118
937.00,0.0114
936.00,0.0110
935.00,0.0106
934.00,0.0102
933.00,0.0099
932.00,0.0097
931.00,0.0095
930.00,0.0094
929.00,0.0094
928.00,0.0093
927.00,0.0094
926.00,0.0095
925.00,0.0097
924.00,0.0099
923.00,0.0101
922.00,0.0104
921.00,0.0108
920.00,0.0112
919.00,0.0117
918.00,0.0124
917.00,0.0133
916.00,0.0144
915.00,0.0156
914.00,0.0172
913.00,0.0189
912.00,0.0207
911.00,0.0226
910.00,0.0244
909.00,0.0260
908.00,0.0272
907.00,0.0279
906.00,0.0279
905.00,0.0273
904.00,0.0261
903.00,0.0245
902.00,0.0225
901.00,0.0204
900.00,0.0184
899.00,0.0164
898.00,0.0148
897.00,0.0135
896.00,0.0123
895.00,0.0115
894.00,0.0108
893.00,0.0103
892.00,0.0099
891.00,0.0095
890.00,0.0092
889.00,0.0090
888.00,0.0087
887.00,0.0085
886.00,0.0083
885.00,0.0082
884.00,0.0080
883.00,0.0078
882.00,0.0077
881.00,0.0075
880.00,0.0074
879.00,0.0074
878.00,0.0073
877.00,0.0073
876.00,0.0072
875.00,0.0071
874.00,0.0070
873.00,0.0070
872.00,0.0068
871.00,0.0067
870.00,0.0067
869.00,0.0066
868.00,0.0065
867.00,0.0065
866.00,0.0065
865.00,0.0066
864.00,0.0066
863.00,0.0066
862.00,0.0067
861.00,0.0067
860.00,0.0067
859.00,0.0067
858.00,0.0068
857.00,0.0069
856.00,0.0069
855.00,0.0071
854.00,0.0074
853.00,0.0077
852.00,0.0081
851.00,0.0086
850.00,0.0093
849.00,0.0101
848.00,0.0109
847.00,0.0117
846.00,0.0125
845.00,0.0132
844.00,0.0137
843.00,0.0141
842.00,0.0143
841.00,0.0143
840.00,0.0140
839.00,0.0135
838.00,0.0128
837.00,0.0120
836.00,0.0111
835.00,0.0102
834.00,0.0093
833.00,0.0086
832.00,0.0079
831.00,0.0074
830.00,0.0070
829.00,0.0068
828.00,0.0065
827.00,0.0063
826.00,0.0063
825.00,0.0062
824.00,0.0061
823.00,0.0060
822.00,0.0061
821.00,0.0061
820.00,0.0060
819.00,0.0061
818.00,0.0061
817.00,0.0062
816.00,0.0062
815.00,0.0062
814.00,0.0063
813.00,0.0063
812.00,0.0063
811.00,0.0064
810.00,0.0065
809.00,0.0066
808.00,0.0066
807.00,0.0067
806.00,0.0068
805.00,0.0069
804.00,0.0069
803.00,0.0071
802.00,0.0073
801.00,0.0076
800.00,0.0078
799.00,0.0081
798.00,0.0084
797.00,0.0088
796.00,0.0092
795.00,0.0097
794.00,0.0103
793.00,0.0109
792.00,0.0116
791.00,0.0123
790.00,0.0131
789.00,0.0140
788.00,0.0148
787.00,0.0157
786.00,0.0168
785.00,0.0179
784.00,0.0190
783.00,0.0202
782.00,0.0217
781.00,0.0233
780.00,0.0251
779.00,0.0272
778.00,0.0297
777.00,0.0324
776.00,0.0355
775.00,0.0388
774.00,0.0426
773.00,0.0466
772.00,0.0509
771.00,0.0554
770.00,0.0603
769.00,0.0654
768.00,0.0703
767.00,0.0753
766.00,0.0801
765.00,0.0849
764.00,0.0895
763.00,0.0942
762.00,0.0992
761.00,0.1041
760.00,0.1090
759.00,0.1135
758.00,0.1174
757.00,0.1203
756.00,0.1221
755.00,0.1228
754.00,0.1229
753.00,0.1225
752.00,0.1219
751.00,0.1216
750.00,0.1215
749.00,0.1214
748.00,0.1207
747.00,0.1188
746.00,0.1153
745.00,0.1098
744.00,0.1026
743.00,0.0943
742.00,0.0858
741.00,0.0774
740.00,0.0696
739.00,0.0625
738.00,0.0561
737.00,0.0501
736.00,0.0444
735.00,0.0390
734.00,0.0339
733.00,0.0294
732.00,0.0254
731.00,0.0222
730.00,0.0197
729.00,0.0178
728.00,0.0164
727.00,0.0153
726.00,0.0146
725.00,0.0141
724.00,0.0138
723.00,0.0136
722.00,0.0136
721.00,0.0136
720.00,0.0138
719.00,0.0140
718.00,0.0145
717.00,0.0152
716.00,0.0162
715.00,0.0175
714.00,0.0196
713.00,0.0223
712.00,0.0261
711.00,0.0314
710.00,0.0387
709.00,0.0484
708.00,0.0607
707.00,0.0759
706.00,0.0944
705.00,0.1159
704.00,0.1406
703.00,0.1684
702.00,0.1996
701.00,0.2338
700.00,0.2704
699.00,0.3088
698.00,0.3475
697.00,0.3825
696.00,0.4071
695.00,0.4139
694.00,0.3987
693.00,0.3637
692.00,0.3171
691.00,0.2693
690.00,0.2266
689.00,0.1914
688.00,0.1635
687.00,0.1418
686.00,0.1251
685.00,0.1119
684.00,0.1012
683.00,0.0923
682.00,0.0850
681.00,0.0787
680.00,0.0733
679.00,0.0686
678.00,0.0647
677.00,0.0613
676.00,0.0584
675.00,0.0559
674.00,0.0537
673.00,0.0518
672.00,0.0499
671.00,0.0483
670.00,0.0468
669.00,0.0452
668.00,0.0431
667.00,0.0410
666.00,0.0395
665.00,0.0382
664.00,0.0367
663.00,0.0353
662.00,0.0339
661.00,0.0324
660.00,0.0309
659.00,0.0295
658.00,0.0283
657.00,0.0272
656.00,0.0261
655.00,0.0251
654.00,0.0241
653.00,0.0232
652.00,0.0222
651.00,0.0214
650.00,0.0208
649.00,0.0203
648.00,0.0197
647.00,0.0192
646.00,0.0188
645.00,0.0185
644.00,0.0182
643.00,0.0180
642.00,0.0179
641.00,0.0179
640.00,0.0179
639.00,0.0180
638.00,0.0184
637.00,0.0189
636.00,0.0194
635.00,0.0199
634.00,0.0205
633.00,0.0211
632.00,0.0216
631.00,0.0219
630.00,0.0224
629.00,0.0228
628.00,0.0230
627.00,0.0233
626.00,0.0236
625.00,0.0239
624.00,0.0242
623.00,0.0246
622.00,0.0251
621.00,0.0255
620.00,0.0253
619.00,0.0247
618.00,0.0239
617.00,0.0230
616.00,0.0222
615.00,0.0216
614.00,0.0213
613.00,0.0210
612.00,0.0206
611.00,0.0203
610.00,0.0202
609.00,0.0200
608.00,0.0197
607.00,0.0195
606.00,0.0195
605.00,0.0196
604.00,0.0196
603.00,0.0197
602.00,0.0198
601.00,0.0200
600.00,0.0200
599.00,0.0200
598.00,0.0204
597.00,0.0207
596.00,0.0209
595.00,0.0211
594.00,0.0215
593.00,0.0219
592.00,0.0222
591.00,0.0226
590.00,0.0230
589.00,0.0234
588.00,0.0237
587.00,0.0240
586.00,0.0245
585.00,0.0251
584.00,0.0256
583.00,0.0262
582.00,0.0270
581.00,0.0279
580.00,0.0287
579.00,0.0298
578.00,0.0312
577.00,0.0327
576.00,0.0341
575.00,0.0357
574.00,0.0375
573.00,0.0394
572.00,0.0411
571.00,0.0428
570.00,0.0445
569.00,0.0461
568.00,0.0475
567.00,0.0490
566.00,0.0507
565.00,0.0524
564.00,0.0538
563.00,0.0553
562.00,0.0569
561.00,0.0585
560.00,0.0600
559.00,0.0616
558.00,0.0634
557.00,0.0651
556.00,0.0667
555.00,0.0684
554.00,0.0703
553.00,0.0724
552.00,0.0745
551.00,0.0768
550.00,0.0794
549.00,0.0821
548.00,0.0850
547.00,0.0883
546.00,0.0921
545.00,0.0962
544.00,0.1003
543.00,0.1044
542.00,0.1085
541.00,0.1120
540.00,0.1146
539.00,0.1162
538.00,0.1167
537.00,0.1157
536.00,0.1132
535.00,0.1095
534.00,0.1048
533.00,0.0993
532.00,0.0932
531.00,0.0871
530.00,0.0812
529.00,0.0757
528.00,0.0703
527.00,0.0653
526.00,0.0609
525.00,0.0569
524.00,0.0534
523.00,0.0503
522.00,0.0478
521.00,0.0455
520.00,0.0433
519.00,0.0414
518.00,0.0399
517.00,0.0385
516.00,0.0371
515.00,0.0359
514.00,0.0351
513.00,0.0343
512.00,0.0331
511.00,0.0319
510.00,0.0310
509.00,0.0300
508.00,0.0288
507.00,0.0278
506.00,0.0270
505.00,0.0264
504.00,0.0255
503.00,0.0248
502.00,0.0244
501.00,0.0239
500.00,0.0231
499.00,0.0223
498.00,0.0218
497.00,0.0214
496.00,0.0209
495.00,0.0204
494.00,0.0201
493.00,0.0198
492.00,0.0193
491.00,0.0189
490.00,0.0190
489.00,0.0190
488.00,0.0186
487.00,0.0180
486.00,0.0177
485.00,0.0175
484.00,0.0171
483.00,0.0167
482.00,0.0167
481.00,0.0167
480.00,0.0163
479.00,0.0160
478.00,0.0160
477.00,0.0160
476.00,0.0156
475.00,0.0154
474.00,0.0156
473.00,0.0157
472.00,0.0154
471.00,0.0152
470.00,0.0154
469.00,0.0156
468.00,0.0153
467.00,0.0150
466.00,0.0150
465.00,0.0148
464.00,0.0142
463.00,0.0137
462.00,0.0139
461.00,0.0143
460.00,0.0143
459.00,0.0142
458.00,0.0145
457.00,0.0146
456.00,0.0140
455.00,0.0134
454.00,0.0134
453.00,0.0134
452.00,0.0130
451.00,0.0127
450.00,0.0128
449.00,0.0128
448.00,0.0124
447.00,0.0123
446.00,0.0126
445.00,0.0128
444.00,0.0123
443.00,0.0117
442.00,0.0119
441.00,0.0121
440.00,0.0119
439.00,0.0119
438.00,0.0125
437.00,0.0131
436.00,0.0130
435.00,0.0125
434.00,0.0126
433.00,0.0127
432.00,0.0124
431.00,0.0121
430.00,0.0124
429.00,0.0124
428.00,0.0116
427.00,0.0110
426.00,0.0113
425.00,0.0118
424.00,0.0115
423.00,0.0111
422.00,0.0112
421.00,0.0113
420.00,0.0105
419.00,0.0098
418.00,0.0101
417.00,0.0100
416.00,0.0092
415.00,0.0090
414.00,0.0104
413.00,0.0116
412.00,0.0116
411.00,0.0117
410.00,0.0130
409.00,0.0142
408.00,0.0138
407.00,0.0128
406.00,0.0125
405.00,0.0121
404.00,0.0109
403.00,0.0103
402.00,0.0114
401.00,0.0118
400.00,0.0095
