Created as New Dataset,Sample 952 By YargerLab Date Tuesday, July 29 2025
cm-1,A
4000.00,0.0013
3999.00,0.0012
3998.00,0.0012
3997.00,0.0012
3996.00,0.0012
3995.00,0.0012
3994.00,0.0012
3993.00,0.0012
3992.00,0.0011
3991.00,0.0011
3990.00,0.0011
3989.00,0.0011
3988.00,0.0012
3987.00,0.0012
3986.00,0.0012
3985.00,0.0012
3984.00,0.0012
3983.00,0.0012
3982.00,0.0012
3981.00,0.0012
3980.00,0.0012
3979.00,0.0011
3978.00,0.0011
3977.00,0.0011
3976.00,0.0011
3975.00,0.0011
3974.00,0.0011
3973.00,0.0012
3972.00,0.0012
3971.00,0.0012
3970.00,0.0012
3969.00,0.0011
3968.00,0.0012
3967.00,0.0011
3966.00,0.0011
3965.00,0.0011
3964.00,0.0011
3963.00,0.0011
3962.00,0.0011
3961.00,0.0011
3960.00,0.0011
3959.00,0.0011
3958.00,0.0012
3957.00,0.0012
3956.00,0.0012
3955.00,0.0012
3954.00,0.0012
3953.00,0.0012
3952.00,0.0012
3951.00,0.0012
3950.00,0.0012
3949.00,0.0012
3948.00,0.0012
3947.00,0.0012
3946.00,0.0012
3945.00,0.0012
3944.00,0.0011
3943.00,0.0011
3942.00,0.0011
3941.00,0.0012
3940.00,0.0012
3939.00,0.0012
3938.00,0.0012
3937.00,0.0012
3936.00,0.0012
3935.00,0.0012
3934.00,0.0011
3933.00,0.0011
3932.00,0.0011
3931.00,0.0011
3930.00,0.0011
3929.00,0.0012
3928.00,0.0012
3927.00,0.0012
3926.00,0.0012
3925.00,0.0011
3924.00,0.0011
3923.00,0.0011
3922.00,0.0011
3921.00,0.0012
3920.00,0.0012
3919.00,0.0012
3918.00,0.0012
3917.00,0.0011
3916.00,0.0011
3915.00,0.0012
3914.00,0.0012
3913.00,0.0012
3912.00,0.0012
3911.00,0.0012
3910.00,0.0012
3909.00,0.0012
3908.00,0.0012
3907.00,0.0011
3906.00,0.0011
3905.00,0.0011
3904.00,0.0011
3903.00,0.0011
3902.00,0.0011
3901.00,0.0011
3900.00,0.0011
3899.00,0.0011
3898.00,0.0011
3897.00,0.0012
3896.00,0.0011
3895.00,0.0011
3894.00,0.0011
3893.00,0.0011
3892.00,0.0011
3891.00,0.0011
3890.00,0.0011
3889.00,0.0011
3888.00,0.0011
3887.00,0.0011
3886.00,0.0011
3885.00,0.0011
3884.00,0.0011
3883.00,0.0011
3882.00,0.0011
3881.00,0.0011
3880.00,0.0011
3879.00,0.0011
3878.00,0.0011
3877.00,0.0011
3876.00,0.0011
3875.00,0.0011
3874.00,0.0011
3873.00,0.0011
3872.00,0.0011
3871.00,0.0011
3870.00,0.0011
3869.00,0.0011
3868.00,0.0011
3867.00,0.0010
3866.00,0.0010
3865.00,0.0010
3864.00,0.0010
3863.00,0.0011
3862.00,0.0011
3861.00,0.0011
3860.00,0.0011
3859.00,0.0011
3858.00,0.0011
3857.00,0.0011
3856.00,0.0011
3855.00,0.0011
3854.00,0.0011
3853.00,0.0011
3852.00,0.0011
3851.00,0.0011
3850.00,0.0011
3849.00,0.0011
3848.00,0.0011
3847.00,0.0011
3846.00,0.0011
3845.00,0.0011
3844.00,0.0012
3843.00,0.0011
3842.00,0.0011
3841.00,0.0011
3840.00,0.0011
3839.00,0.0010
3838.00,0.0010
3837.00,0.0010
3836.00,0.0010
3835.00,0.0010
3834.00,0.0011
3833.00,0.0011
3832.00,0.0011
3831.00,0.0011
3830.00,0.0011
3829.00,0.0011
3828.00,0.0011
3827.00,0.0011
3826.00,0.0011
3825.00,0.0011
3824.00,0.0011
3823.00,0.0011
3822.00,0.0011
3821.00,0.0011
3820.00,0.0012
3819.00,0.0012
3818.00,0.0011
3817.00,0.0012
3816.00,0.0012
3815.00,0.0012
3814.00,0.0012
3813.00,0.0012
3812.00,0.0012
3811.00,0.0012
3810.00,0.0012
3809.00,0.0012
3808.00,0.0011
3807.00,0.0011
3806.00,0.0011
3805.00,0.0011
3804.00,0.0011
3803.00,0.0011
3802.00,0.0011
3801.00,0.0011
3800.00,0.0011
3799.00,0.0011
3798.00,0.0012
3797.00,0.0012
3796.00,0.0012
3795.00,0.0012
3794.00,0.0012
3793.00,0.0012
3792.00,0.0012
3791.00,0.0012
3790.00,0.0012
3789.00,0.0012
3788.00,0.0012
3787.00,0.0011
3786.00,0.0011
3785.00,0.0012
3784.00,0.0012
3783.00,0.0012
3782.00,0.0012
3781.00,0.0012
3780.00,0.0012
3779.00,0.0012
3778.00,0.0012
3777.00,0.0012
3776.00,0.0012
3775.00,0.0012
3774.00,0.0012
3773.00,0.0012
3772.00,0.0012
3771.00,0.0012
3770.00,0.0012
3769.00,0.0012
3768.00,0.0012
3767.00,0.0012
3766.00,0.0012
3765.00,0.0012
3764.00,0.0012
3763.00,0.0012
3762.00,0.0012
3761.00,0.0012
3760.00,0.0012
3759.00,0.0012
3758.00,0.0012
3757.00,0.0012
3756.00,0.0012
3755.00,0.0011
3754.00,0.0011
3753.00,0.0011
3752.00,0.0010
3751.00,0.0010
3750.00,0.0010
3749.00,0.0010
3748.00,0.0010
3747.00,0.0010
3746.00,0.0010
3745.00,0.0010
3744.00,0.0010
3743.00,0.0010
3742.00,0.0010
3741.00,0.0010
3740.00,0.0010
3739.00,0.0010
3738.00,0.0010
3737.00,0.0010
3736.00,0.0010
3735.00,0.0010
3734.00,0.0010
3733.00,0.0010
3732.00,0.0010
3731.00,0.0010
3730.00,0.0010
3729.00,0.0010
3728.00,0.0010
3727.00,0.0011
3726.00,0.0011
3725.00,0.0011
3724.00,0.0012
3723.00,0.0012
3722.00,0.0012
3721.00,0.0012
3720.00,0.0012
3719.00,0.0011
3718.00,0.0011
3717.00,0.0011
3716.00,0.0011
3715.00,0.0011
3714.00,0.0011
3713.00,0.0011
3712.00,0.0011
3711.00,0.0011
3710.00,0.0011
3709.00,0.0011
3708.00,0.0011
3707.00,0.0011
3706.00,0.0011
3705.00,0.0011
3704.00,0.0011
3703.00,0.0012
3702.00,0.0012
3701.00,0.0012
3700.00,0.0012
3699.00,0.0012
3698.00,0.0011
3697.00,0.0012
3696.00,0.0012
3695.00,0.0011
3694.00,0.0011
3693.00,0.0011
3692.00,0.0011
3691.00,0.0011
3690.00,0.0011
3689.00,0.0011
3688.00,0.0011
3687.00,0.0010
3686.00,0.0010
3685.00,0.0011
3684.00,0.0011
3683.00,0.0011
3682.00,0.0011
3681.00,0.0011
3680.00,0.0011
3679.00,0.0012
3678.00,0.0011
3677.00,0.0011
3676.00,0.0011
3675.00,0.0011
3674.00,0.0011
3673.00,0.0011
3672.00,0.0011
3671.00,0.0011
3670.00,0.0011
3669.00,0.0011
3668.00,0.0012
3667.00,0.0012
3666.00,0.0012
3665.00,0.0012
3664.00,0.0012
3663.00,0.0012
3662.00,0.0012
3661.00,0.0012
3660.00,0.0012
3659.00,0.0013
3658.00,0.0013
3657.00,0.0013
3656.00,0.0013
3655.00,0.0013
3654.00,0.0013
3653.00,0.0012
3652.00,0.0012
3651.00,0.0011
3650.00,0.0011
3649.00,0.0012
3648.00,0.0012
3647.00,0.0012
3646.00,0.0012
3645.00,0.0012
3644.00,0.0012
3643.00,0.0012
3642.00,0.0012
3641.00,0.0012
3640.00,0.0012
3639.00,0.0012
3638.00,0.0012
3637.00,0.0012
3636.00,0.0012
3635.00,0.0012
3634.00,0.0012
3633.00,0.0012
3632.00,0.0012
3631.00,0.0012
3630.00,0.0012
3629.00,0.0011
3628.00,0.0012
3627.00,0.0012
3626.00,0.0011
3625.00,0.0012
3624.00,0.0012
3623.00,0.0012
3622.00,0.0012
3621.00,0.0012
3620.00,0.0013
3619.00,0.0013
3618.00,0.0013
3617.00,0.0013
3616.00,0.0013
3615.00,0.0013
3614.00,0.0013
3613.00,0.0013
3612.00,0.0013
3611.00,0.0012
3610.00,0.0012
3609.00,0.0012
3608.00,0.0012
3607.00,0.0012
3606.00,0.0012
3605.00,0.0012
3604.00,0.0013
3603.00,0.0013
3602.00,0.0013
3601.00,0.0013
3600.00,0.0013
3599.00,0.0013
3598.00,0.0013
3597.00,0.0013
3596.00,0.0013
3595.00,0.0013
3594.00,0.0012
3593.00,0.0013
3592.00,0.0013
3591.00,0.0013
3590.00,0.0012
3589.00,0.0013
3588.00,0.0013
3587.00,0.0013
3586.00,0.0013
3585.00,0.0013
3584.00,0.0013
3583.00,0.0013
3582.00,0.0013
3581.00,0.0013
3580.00,0.0014
3579.00,0.0014
3578.00,0.0014
3577.00,0.0014
3576.00,0.0015
3575.00,0.0015
3574.00,0.0015
3573.00,0.0015
3572.00,0.0015
3571.00,0.0015
3570.00,0.0014
3569.00,0.0014
3568.00,0.0014
3567.00,0.0015
3566.00,0.0015
3565.00,0.0015
3564.00,0.0015
3563.00,0.0015
3562.00,0.0015
3561.00,0.0015
3560.00,0.0015
3559.00,0.0015
3558.00,0.0015
3557.00,0.0016
3556.00,0.0016
3555.00,0.0016
3554.00,0.0016
3553.00,0.0016
3552.00,0.0016
3551.00,0.0017
3550.00,0.0017
3549.00,0.0016
3548.00,0.0016
3547.00,0.0016
3546.00,0.0016
3545.00,0.0016
3544.00,0.0016
3543.00,0.0016
3542.00,0.0016
3541.00,0.0016
3540.00,0.0017
3539.00,0.0017
3538.00,0.0017
3537.00,0.0017
3536.00,0.0017
3535.00,0.0017
3534.00,0.0017
3533.00,0.0017
3532.00,0.0018
3531.00,0.0018
3530.00,0.0018
3529.00,0.0018
3528.00,0.0018
3527.00,0.0018
3526.00,0.0018
3525.00,0.0018
3524.00,0.0018
3523.00,0.0018
3522.00,0.0018
3521.00,0.0018
3520.00,0.0018
3519.00,0.0019
3518.00,0.0019
3517.00,0.0019
3516.00,0.0019
3515.00,0.0019
3514.00,0.0019
3513.00,0.0019
3512.00,0.0019
3511.00,0.0019
3510.00,0.0019
3509.00,0.0019
3508.00,0.0019
3507.00,0.0019
3506.00,0.0019
3505.00,0.0019
3504.00,0.0019
3503.00,0.0020
3502.00,0.0020
3501.00,0.0020
3500.00,0.0020
3499.00,0.0020
3498.00,0.0020
3497.00,0.0019
3496.00,0.0019
3495.00,0.0020
3494.00,0.0020
3493.00,0.0020
3492.00,0.0020
3491.00,0.0020
3490.00,0.0020
3489.00,0.0020
3488.00,0.0020
3487.00,0.0020
3486.00,0.0020
3485.00,0.0020
3484.00,0.0020
3483.00,0.0020
3482.00,0.0020
3481.00,0.0020
3480.00,0.0020
3479.00,0.0020
3478.00,0.0020
3477.00,0.0020
3476.00,0.0020
3475.00,0.0020
3474.00,0.0020
3473.00,0.0021
3472.00,0.0021
3471.00,0.0021
3470.00,0.0021
3469.00,0.0021
3468.00,0.0021
3467.00,0.0021
3466.00,0.0021
3465.00,0.0021
3464.00,0.0021
3463.00,0.0021
3462.00,0.0021
3461.00,0.0021
3460.00,0.0022
3459.00,0.0022
3458.00,0.0021
3457.00,0.0021
3456.00,0.0021
3455.00,0.0021
3454.00,0.0021
3453.00,0.0021
3452.00,0.0021
3451.00,0.0021
3450.00,0.0021
3449.00,0.0021
3448.00,0.0021
3447.00,0.0021
3446.00,0.0021
3445.00,0.0022
3444.00,0.0022
3443.00,0.0022
3442.00,0.0022
3441.00,0.0021
3440.00,0.0021
3439.00,0.0021
3438.00,0.0021
3437.00,0.0021
3436.00,0.0021
3435.00,0.0021
3434.00,0.0021
3433.00,0.0022
3432.00,0.0022
3431.00,0.0022
3430.00,0.0022
3429.00,0.0022
3428.00,0.0021
3427.00,0.0021
3426.00,0.0021
3425.00,0.0021
3424.00,0.0021
3423.00,0.0021
3422.00,0.0021
3421.00,0.0021
3420.00,0.0021
3419.00,0.0021
3418.00,0.0021
3417.00,0.0021
3416.00,0.0021
3415.00,0.0022
3414.00,0.0022
3413.00,0.0022
3412.00,0.0022
3411.00,0.0022
3410.00,0.0022
3409.00,0.0022
3408.00,0.0022
3407.00,0.0022
3406.00,0.0021
3405.00,0.0021
3404.00,0.0021
3403.00,0.0022
3402.00,0.0022
3401.00,0.0022
3400.00,0.0022
3399.00,0.0021
3398.00,0.0021
3397.00,0.0021
3396.00,0.0021
3395.00,0.0021
3394.00,0.0021
3393.00,0.0021
3392.00,0.0021
3391.00,0.0021
3390.00,0.0021
3389.00,0.0021
3388.00,0.0021
3387.00,0.0021
3386.00,0.0021
3385.00,0.0022
3384.00,0.0022
3383.00,0.0022
3382.00,0.0022
3381.00,0.0022
3380.00,0.0022
3379.00,0.0022
3378.00,0.0021
3377.00,0.0021
3376.00,0.0021
3375.00,0.0021
3374.00,0.0022
3373.00,0.0022
3372.00,0.0022
3371.00,0.0022
3370.00,0.0022
3369.00,0.0022
3368.00,0.0022
3367.00,0.0021
3366.00,0.0021
3365.00,0.0021
3364.00,0.0021
3363.00,0.0021
3362.00,0.0021
3361.00,0.0021
3360.00,0.0021
3359.00,0.0021
3358.00,0.0022
3357.00,0.0022
3356.00,0.0021
3355.00,0.0021
3354.00,0.0021
3353.00,0.0021
3352.00,0.0021
3351.00,0.0021
3350.00,0.0021
3349.00,0.0020
3348.00,0.0020
3347.00,0.0020
3346.00,0.0020
3345.00,0.0021
3344.00,0.0021
3343.00,0.0021
3342.00,0.0021
3341.00,0.0021
3340.00,0.0021
3339.00,0.0021
3338.00,0.0021
3337.00,0.0021
3336.00,0.0021
3335.00,0.0021
3334.00,0.0021
3333.00,0.0021
3332.00,0.0021
3331.00,0.0021
3330.00,0.0021
3329.00,0.0020
3328.00,0.0020
3327.00,0.0020
3326.00,0.0020
3325.00,0.0020
3324.00,0.0020
3323.00,0.0020
3322.00,0.0020
3321.00,0.0020
3320.00,0.0020
3319.00,0.0020
3318.00,0.0020
3317.00,0.0020
3316.00,0.0020
3315.00,0.0021
3314.00,0.0021
3313.00,0.0021
3312.00,0.0021
3311.00,0.0021
3310.00,0.0020
3309.00,0.0020
3308.00,0.0020
3307.00,0.0020
3306.00,0.0020
3305.00,0.0020
3304.00,0.0020
3303.00,0.0021
3302.00,0.0021
3301.00,0.0021
3300.00,0.0020
3299.00,0.0020
3298.00,0.0020
3297.00,0.0020
3296.00,0.0020
3295.00,0.0020
3294.00,0.0020
3293.00,0.0020
3292.00,0.0019
3291.00,0.0019
3290.00,0.0020
3289.00,0.0020
3288.00,0.0020
3287.00,0.0020
3286.00,0.0020
3285.00,0.0020
3284.00,0.0020
3283.00,0.0020
3282.00,0.0020
3281.00,0.0020
3280.00,0.0020
3279.00,0.0020
3278.00,0.0020
3277.00,0.0020
3276.00,0.0020
3275.00,0.0020
3274.00,0.0020
3273.00,0.0019
3272.00,0.0019
3271.00,0.0019
3270.00,0.0019
3269.00,0.0019
3268.00,0.0020
3267.00,0.0020
3266.00,0.0019
3265.00,0.0019
3264.00,0.0019
3263.00,0.0019
3262.00,0.0019
3261.00,0.0019
3260.00,0.0019
3259.00,0.0019
3258.00,0.0019
3257.00,0.0019
3256.00,0.0019
3255.00,0.0019
3254.00,0.0019
3253.00,0.0019
3252.00,0.0018
3251.00,0.0018
3250.00,0.0018
3249.00,0.0018
3248.00,0.0019
3247.00,0.0019
3246.00,0.0019
3245.00,0.0018
3244.00,0.0018
3243.00,0.0018
3242.00,0.0018
3241.00,0.0018
3240.00,0.0018
3239.00,0.0018
3238.00,0.0018
3237.00,0.0018
3236.00,0.0018
3235.00,0.0018
3234.00,0.0018
3233.00,0.0018
3232.00,0.0018
3231.00,0.0018
3230.00,0.0018
3229.00,0.0018
3228.00,0.0018
3227.00,0.0018
3226.00,0.0018
3225.00,0.0018
3224.00,0.0018
3223.00,0.0018
3222.00,0.0018
3221.00,0.0018
3220.00,0.0018
3219.00,0.0018
3218.00,0.0018
3217.00,0.0018
3216.00,0.0018
3215.00,0.0018
3214.00,0.0018
3213.00,0.0018
3212.00,0.0018
3211.00,0.0018
3210.00,0.0018
3209.00,0.0018
3208.00,0.0018
3207.00,0.0018
3206.00,0.0018
3205.00,0.0018
3204.00,0.0019
3203.00,0.0019
3202.00,0.0019
3201.00,0.0019
3200.00,0.0019
3199.00,0.0019
3198.00,0.0018
3197.00,0.0018
3196.00,0.0018
3195.00,0.0018
3194.00,0.0018
3193.00,0.0018
3192.00,0.0018
3191.00,0.0018
3190.00,0.0018
3189.00,0.0018
3188.00,0.0018
3187.00,0.0017
3186.00,0.0017
3185.00,0.0017
3184.00,0.0017
3183.00,0.0017
3182.00,0.0017
3181.00,0.0017
3180.00,0.0017
3179.00,0.0017
3178.00,0.0017
3177.00,0.0017
3176.00,0.0017
3175.00,0.0017
3174.00,0.0017
3173.00,0.0017
3172.00,0.0017
3171.00,0.0018
3170.00,0.0018
3169.00,0.0018
3168.00,0.0018
3167.00,0.0018
3166.00,0.0018
3165.00,0.0018
3164.00,0.0018
3163.00,0.0018
3162.00,0.0018
3161.00,0.0018
3160.00,0.0017
3159.00,0.0017
3158.00,0.0017
3157.00,0.0017
3156.00,0.0017
3155.00,0.0017
3154.00,0.0017
3153.00,0.0017
3152.00,0.0017
3151.00,0.0016
3150.00,0.0016
3149.00,0.0016
3148.00,0.0016
3147.00,0.0016
3146.00,0.0016
3145.00,0.0016
3144.00,0.0016
3143.00,0.0016
3142.00,0.0016
3141.00,0.0016
3140.00,0.0016
3139.00,0.0016
3138.00,0.0016
3137.00,0.0016
3136.00,0.0016
3135.00,0.0016
3134.00,0.0016
3133.00,0.0016
3132.00,0.0016
3131.00,0.0016
3130.00,0.0016
3129.00,0.0016
3128.00,0.0016
3127.00,0.0017
3126.00,0.0017
3125.00,0.0017
3124.00,0.0017
3123.00,0.0017
3122.00,0.0018
3121.00,0.0018
3120.00,0.0018
3119.00,0.0018
3118.00,0.0019
3117.00,0.0019
3116.00,0.0019
3115.00,0.0020
3114.00,0.0021
3113.00,0.0022
3112.00,0.0023
3111.00,0.0024
3110.00,0.0026
3109.00,0.0028
3108.00,0.0030
3107.00,0.0032
3106.00,0.0033
3105.00,0.0035
3104.00,0.0035
3103.00,0.0036
3102.00,0.0035
3101.00,0.0035
3100.00,0.0035
3099.00,0.0034
3098.00,0.0034
3097.00,0.0033
3096.00,0.0033
3095.00,0.0034
3094.00,0.0035
3093.00,0.0037
3092.00,0.0040
3091.00,0.0043
3090.00,0.0047
3089.00,0.0052
3088.00,0.0058
3087.00,0.0064
3086.00,0.0070
3085.00,0.0075
3084.00,0.0079
3083.00,0.0081
3082.00,0.0082
3081.00,0.0081
3080.00,0.0078
3079.00,0.0074
3078.00,0.0070
3077.00,0.0067
3076.00,0.0064
3075.00,0.0062
3074.00,0.0061
3073.00,0.0061
3072.00,0.0061
3071.00,0.0063
3070.00,0.0065
3069.00,0.0069
3068.00,0.0073
3067.00,0.0079
3066.00,0.0085
3065.00,0.0091
3064.00,0.0097
3063.00,0.0103
3062.00,0.0108
3061.00,0.0111
3060.00,0.0113
3059.00,0.0112
3058.00,0.0109
3057.00,0.0104
3056.00,0.0098
3055.00,0.0092
3054.00,0.0086
3053.00,0.0080
3052.00,0.0075
3051.00,0.0070
3050.00,0.0067
3049.00,0.0064
3048.00,0.0061
3047.00,0.0060
3046.00,0.0058
3045.00,0.0058
3044.00,0.0058
3043.00,0.0060
3042.00,0.0061
3041.00,0.0064
3040.00,0.0067
3039.00,0.0071
3038.00,0.0077
3037.00,0.0083
3036.00,0.0091
3035.00,0.0100
3034.00,0.0110
3033.00,0.0123
3032.00,0.0137
3031.00,0.0152
3030.00,0.0167
3029.00,0.0182
3028.00,0.0196
3027.00,0.0206
3026.00,0.0212
3025.00,0.0212
3024.00,0.0207
3023.00,0.0197
3022.00,0.0182
3021.00,0.0165
3020.00,0.0147
3019.00,0.0130
3018.00,0.0114
3017.00,0.0100
3016.00,0.0089
3015.00,0.0080
3014.00,0.0072
3013.00,0.0066
3012.00,0.0061
3011.00,0.0058
3010.00,0.0056
3009.00,0.0055
3008.00,0.0054
3007.00,0.0055
3006.00,0.0056
3005.00,0.0058
3004.00,0.0060
3003.00,0.0062
3002.00,0.0063
3001.00,0.0063
3000.00,0.0062
2999.00,0.0060
2998.00,0.0056
2997.00,0.0053
2996.00,0.0049
2995.00,0.0045
2994.00,0.0043
2993.00,0.0040
2992.00,0.0039
2991.00,0.0038
2990.00,0.0037
2989.00,0.0036
2988.00,0.0036
2987.00,0.0036
2986.00,0.0036
2985.00,0.0036
2984.00,0.0036
2983.00,0.0036
2982.00,0.0035
2981.00,0.0035
2980.00,0.0036
2979.00,0.0037
2978.00,0.0037
2977.00,0.0038
2976.00,0.0039
2975.00,0.0039
2974.00,0.0039
2973.00,0.0040
2972.00,0.0040
2971.00,0.0041
2970.00,0.0042
2969.00,0.0042
2968.00,0.0044
2967.00,0.0045
2966.00,0.0046
2965.00,0.0047
2964.00,0.0049
2963.00,0.0050
2962.00,0.0052
2961.00,0.0054
2960.00,0.0056
2959.00,0.0058
2958.00,0.0060
2957.00,0.0062
2956.00,0.0064
2955.00,0.0067
2954.00,0.0070
2953.00,0.0073
2952.00,0.0076
2951.00,0.0079
2950.00,0.0082
2949.00,0.0085
2948.00,0.0089
2947.00,0.0094
2946.00,0.0099
2945.00,0.0104
2944.00,0.0110
2943.00,0.0116
2942.00,0.0122
2941.00,0.0129
2940.00,0.0136
2939.00,0.0143
2938.00,0.0151
2937.00,0.0160
2936.00,0.0169
2935.00,0.0178
2934.00,0.0187
2933.00,0.0197
2932.00,0.0206
2931.00,0.0216
2930.00,0.0224
2929.00,0.0232
2928.00,0.0240
2927.00,0.0246
2926.00,0.0252
2925.00,0.0256
2924.00,0.0259
2923.00,0.0261
2922.00,0.0262
2921.00,0.0262
2920.00,0.0260
2919.00,0.0258
2918.00,0.0255
2917.00,0.0251
2916.00,0.0247
2915.00,0.0242
2914.00,0.0236
2913.00,0.0230
2912.00,0.0224
2911.00,0.0218
2910.00,0.0211
2909.00,0.0205
2908.00,0.0198
2907.00,0.0192
2906.00,0.0185
2905.00,0.0179
2904.00,0.0172
2903.00,0.0165
2902.00,0.0159
2901.00,0.0152
2900.00,0.0146
2899.00,0.0140
2898.00,0.0134
2897.00,0.0128
2896.00,0.0123
2895.00,0.0119
2894.00,0.0115
2893.00,0.0111
2892.00,0.0108
2891.00,0.0105
2890.00,0.0102
2889.00,0.0099
2888.00,0.0097
2887.00,0.0094
2886.00,0.0092
2885.00,0.0090
2884.00,0.0088
2883.00,0.0086
2882.00,0.0084
2881.00,0.0082
2880.00,0.0080
2879.00,0.0078
2878.00,0.0077
2877.00,0.0075
2876.00,0.0074
2875.00,0.0072
2874.00,0.0071
2873.00,0.0070
2872.00,0.0070
2871.00,0.0069
2870.00,0.0069
2869.00,0.0068
2868.00,0.0068
2867.00,0.0069
2866.00,0.0070
2865.00,0.0071
2864.00,0.0073
2863.00,0.0076
2862.00,0.0078
2861.00,0.0082
2860.00,0.0085
2859.00,0.0089
2858.00,0.0093
2857.00,0.0097
2856.00,0.0101
2855.00,0.0105
2854.00,0.0108
2853.00,0.0111
2852.00,0.0113
2851.00,0.0115
2850.00,0.0116
2849.00,0.0116
2848.00,0.0115
2847.00,0.0112
2846.00,0.0109
2845.00,0.0105
2844.00,0.0100
2843.00,0.0094
2842.00,0.0087
2841.00,0.0081
2840.00,0.0074
2839.00,0.0067
2838.00,0.0061
2837.00,0.0056
2836.00,0.0051
2835.00,0.0047
2834.00,0.0044
2833.00,0.0041
2832.00,0.0038
2831.00,0.0036
2830.00,0.0035
2829.00,0.0033
2828.00,0.0032
2827.00,0.0031
2826.00,0.0030
2825.00,0.0030
2824.00,0.0029
2823.00,0.0029
2822.00,0.0028
2821.00,0.0028
2820.00,0.0027
2819.00,0.0027
2818.00,0.0027
2817.00,0.0026
2816.00,0.0026
2815.00,0.0026
2814.00,0.0026
2813.00,0.0026
2812.00,0.0026
2811.00,0.0026
2810.00,0.0025
2809.00,0.0025
2808.00,0.0025
2807.00,0.0025
2806.00,0.0024
2805.00,0.0024
2804.00,0.0024
2803.00,0.0023
2802.00,0.0023
2801.00,0.0023
2800.00,0.0023
2799.00,0.0023
2798.00,0.0022
2797.00,0.0022
2796.00,0.0022
2795.00,0.0022
2794.00,0.0021
2793.00,0.0021
2792.00,0.0021
2791.00,0.0021
2790.00,0.0021
2789.00,0.0021
2788.00,0.0021
2787.00,0.0021
2786.00,0.0021
2785.00,0.0021
2784.00,0.0021
2783.00,0.0021
2782.00,0.0021
2781.00,0.0021
2780.00,0.0021
2779.00,0.0021
2778.00,0.0020
2777.00,0.0020
2776.00,0.0020
2775.00,0.0020
2774.00,0.0020
2773.00,0.0020
2772.00,0.0020
2771.00,0.0020
2770.00,0.0019
2769.00,0.0019
2768.00,0.0019
2767.00,0.0019
2766.00,0.0018
2765.00,0.0018
2764.00,0.0018
2763.00,0.0018
2762.00,0.0018
2761.00,0.0018
2760.00,0.0018
2759.00,0.0018
2758.00,0.0018
2757.00,0.0018
2756.00,0.0018
2755.00,0.0018
2754.00,0.0017
2753.00,0.0017
2752.00,0.0017
2751.00,0.0017
2750.00,0.0017
2749.00,0.0017
2748.00,0.0018
2747.00,0.0018
2746.00,0.0018
2745.00,0.0018
2744.00,0.0018
2743.00,0.0018
2742.00,0.0018
2741.00,0.0018
2740.00,0.0018
2739.00,0.0018
2738.00,0.0018
2737.00,0.0018
2736.00,0.0018
2735.00,0.0018
2734.00,0.0018
2733.00,0.0018
2732.00,0.0018
2731.00,0.0018
2730.00,0.0018
2729.00,0.0018
2728.00,0.0018
2727.00,0.0018
2726.00,0.0018
2725.00,0.0018
2724.00,0.0018
2723.00,0.0018
2722.00,0.0018
2721.00,0.0018
2720.00,0.0018
2719.00,0.0018
2718.00,0.0018
2717.00,0.0018
2716.00,0.0018
2715.00,0.0018
2714.00,0.0018
2713.00,0.0018
2712.00,0.0018
2711.00,0.0018
2710.00,0.0018
2709.00,0.0018
2708.00,0.0018
2707.00,0.0018
2706.00,0.0017
2705.00,0.0017
2704.00,0.0017
2703.00,0.0017
2702.00,0.0017
2701.00,0.0017
2700.00,0.0017
2699.00,0.0017
2698.00,0.0017
2697.00,0.0017
2696.00,0.0017
2695.00,0.0017
2694.00,0.0017
2693.00,0.0017
2692.00,0.0017
2691.00,0.0017
2690.00,0.0018
2689.00,0.0018
2688.00,0.0018
2687.00,0.0018
2686.00,0.0017
2685.00,0.0017
2684.00,0.0017
2683.00,0.0017
2682.00,0.0017
2681.00,0.0017
2680.00,0.0017
2679.00,0.0017
2678.00,0.0017
2677.00,0.0017
2676.00,0.0017
2675.00,0.0017
2674.00,0.0017
2673.00,0.0017
2672.00,0.0017
2671.00,0.0017
2670.00,0.0017
2669.00,0.0017
2668.00,0.0017
2667.00,0.0017
2666.00,0.0017
2665.00,0.0018
2664.00,0.0018
2663.00,0.0019
2662.00,0.0019
2661.00,0.0020
2660.00,0.0020
2659.00,0.0020
2658.00,0.0020
2657.00,0.0020
2656.00,0.0021
2655.00,0.0021
2654.00,0.0021
2653.00,0.0021
2652.00,0.0021
2651.00,0.0021
2650.00,0.0021
2649.00,0.0021
2648.00,0.0021
2647.00,0.0021
2646.00,0.0021
2645.00,0.0021
2644.00,0.0021
2643.00,0.0021
2642.00,0.0021
2641.00,0.0021
2640.00,0.0021
2639.00,0.0021
2638.00,0.0021
2637.00,0.0021
2636.00,0.0021
2635.00,0.0021
2634.00,0.0022
2633.00,0.0022
2632.00,0.0022
2631.00,0.0021
2630.00,0.0021
2629.00,0.0021
2628.00,0.0021
2627.00,0.0020
2626.00,0.0020
2625.00,0.0020
2624.00,0.0020
2623.00,0.0020
2622.00,0.0020
2621.00,0.0020
2620.00,0.0020
2619.00,0.0019
2618.00,0.0019
2617.00,0.0019
2616.00,0.0019
2615.00,0.0019
2614.00,0.0019
2613.00,0.0019
2612.00,0.0019
2611.00,0.0019
2610.00,0.0019
2609.00,0.0019
2608.00,0.0019
2607.00,0.0019
2606.00,0.0019
2605.00,0.0019
2604.00,0.0019
2603.00,0.0019
2602.00,0.0019
2601.00,0.0019
2600.00,0.0019
2599.00,0.0019
2598.00,0.0018
2597.00,0.0017
2596.00,0.0017
2595.00,0.0017
2594.00,0.0017
2593.00,0.0017
2592.00,0.0017
2591.00,0.0017
2590.00,0.0017
2589.00,0.0017
2588.00,0.0017
2587.00,0.0017
2586.00,0.0017
2585.00,0.0017
2584.00,0.0017
2583.00,0.0016
2582.00,0.0017
2581.00,0.0017
2580.00,0.0017
2579.00,0.0017
2578.00,0.0017
2577.00,0.0016
2576.00,0.0016
2575.00,0.0016
2574.00,0.0016
2573.00,0.0016
2572.00,0.0015
2571.00,0.0015
2570.00,0.0015
2569.00,0.0015
2568.00,0.0015
2567.00,0.0015
2566.00,0.0015
2565.00,0.0015
2564.00,0.0015
2563.00,0.0015
2562.00,0.0015
2561.00,0.0015
2560.00,0.0015
2559.00,0.0015
2558.00,0.0015
2557.00,0.0015
2556.00,0.0015
2555.00,0.0015
2554.00,0.0015
2553.00,0.0015
2552.00,0.0014
2551.00,0.0014
2550.00,0.0014
2549.00,0.0014
2548.00,0.0014
2547.00,0.0014
2546.00,0.0014
2545.00,0.0014
2544.00,0.0014
2543.00,0.0014
2542.00,0.0014
2541.00,0.0014
2540.00,0.0014
2539.00,0.0013
2538.00,0.0013
2537.00,0.0013
2536.00,0.0013
2535.00,0.0013
2534.00,0.0013
2533.00,0.0014
2532.00,0.0014
2531.00,0.0014
2530.00,0.0014
2529.00,0.0014
2528.00,0.0014
2527.00,0.0014
2526.00,0.0013
2525.00,0.0013
2524.00,0.0013
2523.00,0.0013
2522.00,0.0013
2521.00,0.0013
2520.00,0.0013
2519.00,0.0013
2518.00,0.0013
2517.00,0.0013
2516.00,0.0013
2515.00,0.0013
2514.00,0.0013
2513.00,0.0013
2512.00,0.0013
2511.00,0.0013
2510.00,0.0013
2509.00,0.0013
2508.00,0.0013
2507.00,0.0013
2506.00,0.0013
2505.00,0.0013
2504.00,0.0013
2503.00,0.0013
2502.00,0.0013
2501.00,0.0013
2500.00,0.0013
2499.00,0.0013
2498.00,0.0013
2497.00,0.0013
2496.00,0.0012
2495.00,0.0012
2494.00,0.0012
2493.00,0.0012
2492.00,0.0012
2491.00,0.0013
2490.00,0.0013
2489.00,0.0013
2488.00,0.0012
2487.00,0.0012
2486.00,0.0012
2485.00,0.0012
2484.00,0.0012
2483.00,0.0011
2482.00,0.0011
2481.00,0.0011
2480.00,0.0011
2479.00,0.0011
2478.00,0.0011
2477.00,0.0011
2476.00,0.0011
2475.00,0.0011
2474.00,0.0011
2473.00,0.0011
2472.00,0.0011
2471.00,0.0011
2470.00,0.0012
2469.00,0.0012
2468.00,0.0012
2467.00,0.0012
2466.00,0.0012
2465.00,0.0011
2464.00,0.0011
2463.00,0.0011
2462.00,0.0011
2461.00,0.0011
2460.00,0.0011
2459.00,0.0012
2458.00,0.0012
2457.00,0.0012
2456.00,0.0012
2455.00,0.0012
2454.00,0.0012
2453.00,0.0012
2452.00,0.0012
2451.00,0.0012
2450.00,0.0012
2449.00,0.0011
2448.00,0.0011
2447.00,0.0011
2446.00,0.0011
2445.00,0.0011
2444.00,0.0011
2443.00,0.0011
2442.00,0.0011
2441.00,0.0011
2440.00,0.0010
2439.00,0.0010
2438.00,0.0010
2437.00,0.0010
2436.00,0.0010
2435.00,0.0010
2434.00,0.0010
2433.00,0.0010
2432.00,0.0010
2431.00,0.0010
2430.00,0.0010
2429.00,0.0010
2428.00,0.0010
2427.00,0.0009
2426.00,0.0009
2425.00,0.0009
2424.00,0.0009
2423.00,0.0009
2422.00,0.0009
2421.00,0.0009
2420.00,0.0009
2419.00,0.0009
2418.00,0.0009
2417.00,0.0009
2416.00,0.0009
2415.00,0.0009
2414.00,0.0009
2413.00,0.0009
2412.00,0.0009
2411.00,0.0009
2410.00,0.0008
2409.00,0.0008
2408.00,0.0008
2407.00,0.0008
2406.00,0.0009
2405.00,0.0009
2404.00,0.0009
2403.00,0.0008
2402.00,0.0008
2401.00,0.0008
2400.00,0.0008
2399.00,0.0008
2398.00,0.0008
2397.00,0.0008
2396.00,0.0008
2395.00,0.0007
2394.00,0.0007
2393.00,0.0007
2392.00,0.0007
2391.00,0.0007
2390.00,0.0007
2389.00,0.0007
2388.00,0.0008
2387.00,0.0008
2386.00,0.0007
2385.00,0.0007
2384.00,0.0006
2383.00,0.0006
2382.00,0.0006
2381.00,0.0006
2380.00,0.0007
2379.00,0.0007
2378.00,0.0007
2377.00,0.0007
2376.00,0.0007
2375.00,0.0007
2374.00,0.0006
2373.00,0.0006
2372.00,0.0005
2371.00,0.0005
2370.00,0.0004
2369.00,0.0004
2368.00,0.0004
2367.00,0.0005
2366.00,0.0005
2365.00,0.0006
2364.00,0.0006
2363.00,0.0007
2362.00,0.0007
2361.00,0.0008
2360.00,0.0008
2359.00,0.0009
2358.00,0.0009
2357.00,0.0009
2356.00,0.0009
2355.00,0.0009
2354.00,0.0009
2353.00,0.0009
2352.00,0.0009
2351.00,0.0009
2350.00,0.0009
2349.00,0.0010
2348.00,0.0010
2347.00,0.0011
2346.00,0.0012
2345.00,0.0012
2344.00,0.0012
2343.00,0.0012
2342.00,0.0012
2341.00,0.0012
2340.00,0.0013
2339.00,0.0013
2338.00,0.0014
2337.00,0.0014
2336.00,0.0014
2335.00,0.0014
2334.00,0.0014
2333.00,0.0013
2332.00,0.0013
2331.00,0.0012
2330.00,0.0012
2329.00,0.0013
2328.00,0.0015
2327.00,0.0018
2326.00,0.0021
2325.00,0.0022
2324.00,0.0021
2323.00,0.0020
2322.00,0.0019
2321.00,0.0018
2320.00,0.0017
2319.00,0.0016
2318.00,0.0016
2317.00,0.0016
2316.00,0.0016
2315.00,0.0016
2314.00,0.0016
2313.00,0.0016
2312.00,0.0016
2311.00,0.0015
2310.00,0.0015
2309.00,0.0014
2308.00,0.0014
2307.00,0.0014
2306.00,0.0013
2305.00,0.0013
2304.00,0.0013
2303.00,0.0013
2302.00,0.0013
2301.00,0.0013
2300.00,0.0014
2299.00,0.0014
2298.00,0.0014
2297.00,0.0014
2296.00,0.0015
2295.00,0.0015
2294.00,0.0016
2293.00,0.0017
2292.00,0.0017
2291.00,0.0018
2290.00,0.0019
2289.00,0.0019
2288.00,0.0019
2287.00,0.0020
2286.00,0.0019
2285.00,0.0018
2284.00,0.0018
2283.00,0.0017
2282.00,0.0017
2281.00,0.0016
2280.00,0.0016
2279.00,0.0016
2278.00,0.0015
2277.00,0.0015
2276.00,0.0015
2275.00,0.0014
2274.00,0.0014
2273.00,0.0013
2272.00,0.0014
2271.00,0.0013
2270.00,0.0013
2269.00,0.0012
2268.00,0.0012
2267.00,0.0011
2266.00,0.0011
2265.00,0.0011
2264.00,0.0012
2263.00,0.0012
2262.00,0.0013
2261.00,0.0013
2260.00,0.0013
2259.00,0.0013
2258.00,0.0013
2257.00,0.0012
2256.00,0.0011
2255.00,0.0011
2254.00,0.0010
2253.00,0.0010
2252.00,0.0010
2251.00,0.0010
2250.00,0.0010
2249.00,0.0010
2248.00,0.0010
2247.00,0.0011
2246.00,0.0012
2245.00,0.0012
2244.00,0.0013
2243.00,0.0012
2242.00,0.0012
2241.00,0.0011
2240.00,0.0011
2239.00,0.0010
2238.00,0.0010
2237.00,0.0010
2236.00,0.0010
2235.00,0.0010
2234.00,0.0009
2233.00,0.0009
2232.00,0.0009
2231.00,0.0010
2230.00,0.0010
2229.00,0.0010
2228.00,0.0011
2227.00,0.0011
2226.00,0.0010
2225.00,0.0009
2224.00,0.0009
2223.00,0.0009
2222.00,0.0009
2221.00,0.0009
2220.00,0.0009
2219.00,0.0009
2218.00,0.0009
2217.00,0.0009
2216.00,0.0010
2215.00,0.0011
2214.00,0.0011
2213.00,0.0011
2212.00,0.0010
2211.00,0.0009
2210.00,0.0007
2209.00,0.0006
2208.00,0.0006
2207.00,0.0007
2206.00,0.0007
2205.00,0.0007
2204.00,0.0008
2203.00,0.0008
2202.00,0.0009
2201.00,0.0011
2200.00,0.0012
2199.00,0.0012
2198.00,0.0012
2197.00,0.0012
2196.00,0.0012
2195.00,0.0012
2194.00,0.0011
2193.00,0.0011
2192.00,0.0011
2191.00,0.0012
2190.00,0.0012
2189.00,0.0013
2188.00,0.0013
2187.00,0.0012
2186.00,0.0011
2185.00,0.0009
2184.00,0.0007
2183.00,0.0006
2182.00,0.0005
2181.00,0.0006
2180.00,0.0007
2179.00,0.0008
2178.00,0.0007
2177.00,0.0006
2176.00,0.0004
2175.00,0.0003
2174.00,0.0003
2173.00,0.0004
2172.00,0.0006
2171.00,0.0009
2170.00,0.0011
2169.00,0.0011
2168.00,0.0012
2167.00,0.0012
2166.00,0.0013
2165.00,0.0015
2164.00,0.0016
2163.00,0.0017
2162.00,0.0015
2161.00,0.0008
2160.00,-0.0003
2159.00,-0.0013
2158.00,-0.0020
2157.00,-0.0021
2156.00,-0.0018
2155.00,-0.0015
2154.00,-0.0013
2153.00,-0.0011
2152.00,-0.0010
2151.00,-0.0009
2150.00,-0.0008
2149.00,-0.0007
2148.00,-0.0007
2147.00,-0.0007
2146.00,-0.0008
2145.00,-0.0009
2144.00,-0.0009
2143.00,-0.0009
2142.00,-0.0009
2141.00,-0.0009
2140.00,-0.0008
2139.00,-0.0008
2138.00,-0.0008
2137.00,-0.0008
2136.00,-0.0010
2135.00,-0.0011
2134.00,-0.0011
2133.00,-0.0010
2132.00,-0.0009
2131.00,-0.0008
2130.00,-0.0006
2129.00,-0.0005
2128.00,-0.0004
2127.00,-0.0003
2126.00,-0.0002
2125.00,-0.0001
2124.00,-0.0000
2123.00,0.0001
2122.00,0.0001
2121.00,0.0002
2120.00,0.0002
2119.00,0.0003
2118.00,0.0004
2117.00,0.0005
2116.00,0.0006
2115.00,0.0007
2114.00,0.0007
2113.00,0.0007
2112.00,0.0007
2111.00,0.0007
2110.00,0.0007
2109.00,0.0006
2108.00,0.0006
2107.00,0.0005
2106.00,0.0005
2105.00,0.0005
2104.00,0.0006
2103.00,0.0006
2102.00,0.0006
2101.00,0.0006
2100.00,0.0005
2099.00,0.0004
2098.00,0.0003
2097.00,0.0002
2096.00,0.0001
2095.00,0.0001
2094.00,0.0001
2093.00,0.0002
2092.00,0.0003
2091.00,0.0004
2090.00,0.0005
2089.00,0.0005
2088.00,0.0005
2087.00,0.0006
2086.00,0.0007
2085.00,0.0007
2084.00,0.0008
2083.00,0.0008
2082.00,0.0007
2081.00,0.0007
2080.00,0.0007
2079.00,0.0008
2078.00,0.0008
2077.00,0.0008
2076.00,0.0007
2075.00,0.0006
2074.00,0.0006
2073.00,0.0005
2072.00,0.0005
2071.00,0.0006
2070.00,0.0006
2069.00,0.0006
2068.00,0.0006
2067.00,0.0007
2066.00,0.0007
2065.00,0.0007
2064.00,0.0006
2063.00,0.0005
2062.00,0.0003
2061.00,0.0003
2060.00,0.0003
2059.00,0.0004
2058.00,0.0004
2057.00,0.0004
2056.00,0.0003
2055.00,0.0003
2054.00,0.0005
2053.00,0.0008
2052.00,0.0011
2051.00,0.0013
2050.00,0.0012
2049.00,0.0010
2048.00,0.0008
2047.00,0.0007
2046.00,0.0006
2045.00,0.0005
2044.00,0.0005
2043.00,0.0005
2042.00,0.0005
2041.00,0.0005
2040.00,0.0006
2039.00,0.0007
2038.00,0.0009
2037.00,0.0009
2036.00,0.0007
2035.00,0.0005
2034.00,0.0003
2033.00,0.0001
2032.00,0.0001
2031.00,0.0000
2030.00,-0.0001
2029.00,-0.0002
2028.00,-0.0003
2027.00,-0.0003
2026.00,-0.0002
2025.00,-0.0002
2024.00,-0.0002
2023.00,-0.0001
2022.00,-0.0000
2021.00,0.0001
2020.00,0.0001
2019.00,0.0001
2018.00,0.0001
2017.00,0.0001
2016.00,0.0001
2015.00,0.0001
2014.00,0.0001
2013.00,0.0001
2012.00,0.0002
2011.00,0.0003
2010.00,0.0003
2009.00,0.0002
2008.00,0.0001
2007.00,-0.0001
2006.00,-0.0002
2005.00,-0.0003
2004.00,-0.0003
2003.00,-0.0003
2002.00,-0.0001
2001.00,0.0000
2000.00,0.0001
1999.00,0.0002
1998.00,0.0002
1997.00,0.0001
1996.00,0.0001
1995.00,0.0002
1994.00,0.0002
1993.00,0.0002
1992.00,0.0003
1991.00,0.0005
1990.00,0.0006
1989.00,0.0008
1988.00,0.0008
1987.00,0.0009
1986.00,0.0010
1985.00,0.0012
1984.00,0.0014
1983.00,0.0016
1982.00,0.0017
1981.00,0.0017
1980.00,0.0015
1979.00,0.0011
1978.00,0.0007
1977.00,0.0004
1976.00,0.0002
1975.00,0.0002
1974.00,0.0001
1973.00,0.0001
1972.00,0.0001
1971.00,0.0002
1970.00,0.0004
1969.00,0.0006
1968.00,0.0006
1967.00,0.0007
1966.00,0.0007
1965.00,0.0008
1964.00,0.0009
1963.00,0.0009
1962.00,0.0009
1961.00,0.0008
1960.00,0.0009
1959.00,0.0010
1958.00,0.0012
1957.00,0.0014
1956.00,0.0015
1955.00,0.0016
1954.00,0.0017
1953.00,0.0017
1952.00,0.0017
1951.00,0.0018
1950.00,0.0020
1949.00,0.0021
1948.00,0.0023
1947.00,0.0025
1946.00,0.0027
1945.00,0.0028
1944.00,0.0029
1943.00,0.0029
1942.00,0.0029
1941.00,0.0028
1940.00,0.0027
1939.00,0.0026
1938.00,0.0025
1937.00,0.0023
1936.00,0.0022
1935.00,0.0020
1934.00,0.0018
1933.00,0.0015
1932.00,0.0013
1931.00,0.0012
1930.00,0.0011
1929.00,0.0011
1928.00,0.0010
1927.00,0.0009
1926.00,0.0008
1925.00,0.0007
1924.00,0.0007
1923.00,0.0007
1922.00,0.0007
1921.00,0.0008
1920.00,0.0008
1919.00,0.0008
1918.00,0.0008
1917.00,0.0007
1916.00,0.0006
1915.00,0.0006
1914.00,0.0006
1913.00,0.0006
1912.00,0.0006
1911.00,0.0006
1910.00,0.0006
1909.00,0.0006
1908.00,0.0006
1907.00,0.0006
1906.00,0.0007
1905.00,0.0007
1904.00,0.0007
1903.00,0.0007
1902.00,0.0008
1901.00,0.0009
1900.00,0.0010
1899.00,0.0010
1898.00,0.0011
1897.00,0.0011
1896.00,0.0012
1895.00,0.0013
1894.00,0.0014
1893.00,0.0014
1892.00,0.0015
1891.00,0.0016
1890.00,0.0017
1889.00,0.0018
1888.00,0.0018
1887.00,0.0018
1886.00,0.0018
1885.00,0.0019
1884.00,0.0020
1883.00,0.0021
1882.00,0.0022
1881.00,0.0022
1880.00,0.0023
1879.00,0.0024
1878.00,0.0024
1877.00,0.0024
1876.00,0.0024
1875.00,0.0025
1874.00,0.0025
1873.00,0.0026
1872.00,0.0027
1871.00,0.0028
1870.00,0.0028
1869.00,0.0028
1868.00,0.0027
1867.00,0.0027
1866.00,0.0026
1865.00,0.0025
1864.00,0.0024
1863.00,0.0023
1862.00,0.0021
1861.00,0.0020
1860.00,0.0018
1859.00,0.0017
1858.00,0.0015
1857.00,0.0014
1856.00,0.0013
1855.00,0.0012
1854.00,0.0011
1853.00,0.0009
1852.00,0.0009
1851.00,0.0008
1850.00,0.0008
1849.00,0.0008
1848.00,0.0008
1847.00,0.0008
1846.00,0.0008
1845.00,0.0008
1844.00,0.0008
1843.00,0.0008
1842.00,0.0007
1841.00,0.0007
1840.00,0.0007
1839.00,0.0007
1838.00,0.0007
1837.00,0.0008
1836.00,0.0008
1835.00,0.0008
1834.00,0.0008
1833.00,0.0009
1832.00,0.0009
1831.00,0.0010
1830.00,0.0011
1829.00,0.0012
1828.00,0.0012
1827.00,0.0013
1826.00,0.0014
1825.00,0.0015
1824.00,0.0015
1823.00,0.0016
1822.00,0.0016
1821.00,0.0017
1820.00,0.0017
1819.00,0.0017
1818.00,0.0017
1817.00,0.0018
1816.00,0.0019
1815.00,0.0020
1814.00,0.0021
1813.00,0.0023
1812.00,0.0024
1811.00,0.0025
1810.00,0.0026
1809.00,0.0027
1808.00,0.0028
1807.00,0.0029
1806.00,0.0030
1805.00,0.0031
1804.00,0.0031
1803.00,0.0032
1802.00,0.0033
1801.00,0.0033
1800.00,0.0032
1799.00,0.0032
1798.00,0.0031
1797.00,0.0030
1796.00,0.0029
1795.00,0.0027
1794.00,0.0026
1793.00,0.0024
1792.00,0.0022
1791.00,0.0021
1790.00,0.0019
1789.00,0.0018
1788.00,0.0017
1787.00,0.0017
1786.00,0.0016
1785.00,0.0016
1784.00,0.0016
1783.00,0.0016
1782.00,0.0016
1781.00,0.0016
1780.00,0.0016
1779.00,0.0016
1778.00,0.0016
1777.00,0.0016
1776.00,0.0017
1775.00,0.0018
1774.00,0.0018
1773.00,0.0018
1772.00,0.0018
1771.00,0.0018
1770.00,0.0018
1769.00,0.0018
1768.00,0.0018
1767.00,0.0018
1766.00,0.0018
1765.00,0.0018
1764.00,0.0019
1763.00,0.0020
1762.00,0.0021
1761.00,0.0022
1760.00,0.0022
1759.00,0.0023
1758.00,0.0025
1757.00,0.0026
1756.00,0.0027
1755.00,0.0028
1754.00,0.0029
1753.00,0.0030
1752.00,0.0032
1751.00,0.0033
1750.00,0.0035
1749.00,0.0036
1748.00,0.0038
1747.00,0.0038
1746.00,0.0039
1745.00,0.0040
1744.00,0.0040
1743.00,0.0041
1742.00,0.0042
1741.00,0.0042
1740.00,0.0042
1739.00,0.0042
1738.00,0.0042
1737.00,0.0042
1736.00,0.0042
1735.00,0.0041
1734.00,0.0040
1733.00,0.0039
1732.00,0.0038
1731.00,0.0038
1730.00,0.0038
1729.00,0.0037
1728.00,0.0036
1727.00,0.0036
1726.00,0.0035
1725.00,0.0035
1724.00,0.0034
1723.00,0.0034
1722.00,0.0033
1721.00,0.0033
1720.00,0.0033
1719.00,0.0033
1718.00,0.0032
1717.00,0.0031
1716.00,0.0030
1715.00,0.0030
1714.00,0.0030
1713.00,0.0029
1712.00,0.0029
1711.00,0.0029
1710.00,0.0029
1709.00,0.0030
1708.00,0.0030
1707.00,0.0031
1706.00,0.0031
1705.00,0.0031
1704.00,0.0032
1703.00,0.0032
1702.00,0.0033
1701.00,0.0034
1700.00,0.0035
1699.00,0.0035
1698.00,0.0035
1697.00,0.0036
1696.00,0.0037
1695.00,0.0038
1694.00,0.0039
1693.00,0.0041
1692.00,0.0043
1691.00,0.0046
1690.00,0.0048
1689.00,0.0050
1688.00,0.0052
1687.00,0.0053
1686.00,0.0054
1685.00,0.0055
1684.00,0.0056
1683.00,0.0057
1682.00,0.0058
1681.00,0.0058
1680.00,0.0059
1679.00,0.0060
1678.00,0.0060
1677.00,0.0061
1676.00,0.0062
1675.00,0.0062
1674.00,0.0062
1673.00,0.0062
1672.00,0.0063
1671.00,0.0063
1670.00,0.0064
1669.00,0.0064
1668.00,0.0064
1667.00,0.0064
1666.00,0.0064
1665.00,0.0064
1664.00,0.0063
1663.00,0.0063
1662.00,0.0062
1661.00,0.0061
1660.00,0.0060
1659.00,0.0059
1658.00,0.0058
1657.00,0.0058
1656.00,0.0058
1655.00,0.0057
1654.00,0.0055
1653.00,0.0052
1652.00,0.0049
1651.00,0.0047
1650.00,0.0047
1649.00,0.0048
1648.00,0.0047
1647.00,0.0045
1646.00,0.0043
1645.00,0.0041
1644.00,0.0040
1643.00,0.0039
1642.00,0.0038
1641.00,0.0038
1640.00,0.0037
1639.00,0.0036
1638.00,0.0036
1637.00,0.0036
1636.00,0.0035
1635.00,0.0034
1634.00,0.0033
1633.00,0.0032
1632.00,0.0032
1631.00,0.0032
1630.00,0.0032
1629.00,0.0032
1628.00,0.0032
1627.00,0.0032
1626.00,0.0032
1625.00,0.0032
1624.00,0.0033
1623.00,0.0033
1622.00,0.0033
1621.00,0.0033
1620.00,0.0034
1619.00,0.0034
1618.00,0.0034
1617.00,0.0035
1616.00,0.0036
1615.00,0.0037
1614.00,0.0039
1613.00,0.0042
1612.00,0.0046
1611.00,0.0052
1610.00,0.0059
1609.00,0.0070
1608.00,0.0084
1607.00,0.0101
1606.00,0.0122
1605.00,0.0144
1604.00,0.0167
1603.00,0.0188
1602.00,0.0201
1601.00,0.0206
1600.00,0.0200
1599.00,0.0185
1598.00,0.0164
1597.00,0.0142
1596.00,0.0122
1595.00,0.0105
1594.00,0.0092
1593.00,0.0082
1592.00,0.0074
1591.00,0.0068
1590.00,0.0064
1589.00,0.0062
1588.00,0.0063
1587.00,0.0067
1586.00,0.0073
1585.00,0.0081
1584.00,0.0086
1583.00,0.0088
1582.00,0.0084
1581.00,0.0076
1580.00,0.0066
1579.00,0.0057
1578.00,0.0050
1577.00,0.0043
1576.00,0.0037
1575.00,0.0034
1574.00,0.0032
1573.00,0.0031
1572.00,0.0030
1571.00,0.0029
1570.00,0.0028
1569.00,0.0026
1568.00,0.0025
1567.00,0.0024
1566.00,0.0024
1565.00,0.0023
1564.00,0.0023
1563.00,0.0023
1562.00,0.0023
1561.00,0.0024
1560.00,0.0024
1559.00,0.0024
1558.00,0.0024
1557.00,0.0024
1556.00,0.0024
1555.00,0.0025
1554.00,0.0026
1553.00,0.0027
1552.00,0.0028
1551.00,0.0029
1550.00,0.0030
1549.00,0.0031
1548.00,0.0032
1547.00,0.0033
1546.00,0.0034
1545.00,0.0035
1544.00,0.0036
1543.00,0.0036
1542.00,0.0036
1541.00,0.0035
1540.00,0.0033
1539.00,0.0032
1538.00,0.0031
1537.00,0.0031
1536.00,0.0031
1535.00,0.0030
1534.00,0.0029
1533.00,0.0028
1532.00,0.0027
1531.00,0.0026
1530.00,0.0025
1529.00,0.0025
1528.00,0.0025
1527.00,0.0024
1526.00,0.0024
1525.00,0.0023
1524.00,0.0023
1523.00,0.0023
1522.00,0.0023
1521.00,0.0022
1520.00,0.0023
1519.00,0.0023
1518.00,0.0024
1517.00,0.0025
1516.00,0.0025
1515.00,0.0026
1514.00,0.0026
1513.00,0.0027
1512.00,0.0027
1511.00,0.0029
1510.00,0.0030
1509.00,0.0031
1508.00,0.0033
1507.00,0.0035
1506.00,0.0038
1505.00,0.0041
1504.00,0.0044
1503.00,0.0050
1502.00,0.0058
1501.00,0.0070
1500.00,0.0087
1499.00,0.0113
1498.00,0.0154
1497.00,0.0217
1496.00,0.0299
1495.00,0.0384
1494.00,0.0453
1493.00,0.0492
1492.00,0.0492
1491.00,0.0449
1490.00,0.0376
1489.00,0.0298
1488.00,0.0235
1487.00,0.0189
1486.00,0.0155
1485.00,0.0130
1484.00,0.0110
1483.00,0.0095
1482.00,0.0083
1481.00,0.0073
1480.00,0.0067
1479.00,0.0062
1478.00,0.0059
1477.00,0.0057
1476.00,0.0056
1475.00,0.0055
1474.00,0.0054
1473.00,0.0054
1472.00,0.0054
1471.00,0.0055
1470.00,0.0056
1469.00,0.0057
1468.00,0.0060
1467.00,0.0062
1466.00,0.0065
1465.00,0.0068
1464.00,0.0072
1463.00,0.0076
1462.00,0.0081
1461.00,0.0087
1460.00,0.0098
1459.00,0.0116
1458.00,0.0151
1457.00,0.0213
1456.00,0.0293
1455.00,0.0369
1454.00,0.0434
1453.00,0.0482
1452.00,0.0505
1451.00,0.0500
1450.00,0.0473
1449.00,0.0436
1448.00,0.0397
1447.00,0.0362
1446.00,0.0333
1445.00,0.0308
1444.00,0.0285
1443.00,0.0262
1442.00,0.0241
1441.00,0.0222
1440.00,0.0206
1439.00,0.0192
1438.00,0.0177
1437.00,0.0161
1436.00,0.0143
1435.00,0.0127
1434.00,0.0116
1433.00,0.0106
1432.00,0.0097
1431.00,0.0089
1430.00,0.0082
1429.00,0.0077
1428.00,0.0072
1427.00,0.0068
1426.00,0.0066
1425.00,0.0064
1424.00,0.0062
1423.00,0.0059
1422.00,0.0058
1421.00,0.0056
1420.00,0.0054
1419.00,0.0053
1418.00,0.0051
1417.00,0.0049
1416.00,0.0048
1415.00,0.0046
1414.00,0.0046
1413.00,0.0045
1412.00,0.0044
1411.00,0.0044
1410.00,0.0044
1409.00,0.0043
1408.00,0.0043
1407.00,0.0043
1406.00,0.0043
1405.00,0.0043
1404.00,0.0043
1403.00,0.0043
1402.00,0.0043
1401.00,0.0043
1400.00,0.0043
1399.00,0.0044
1398.00,0.0045
1397.00,0.0046
1396.00,0.0047
1395.00,0.0048
1394.00,0.0050
1393.00,0.0051
1392.00,0.0053
1391.00,0.0055
1390.00,0.0058
1389.00,0.0062
1388.00,0.0066
1387.00,0.0070
1386.00,0.0074
1385.00,0.0078
1384.00,0.0081
1383.00,0.0084
1382.00,0.0088
1381.00,0.0091
1380.00,0.0094
1379.00,0.0097
1378.00,0.0100
1377.00,0.0103
1376.00,0.0106
1375.00,0.0109
1374.00,0.0111
1373.00,0.0111
1372.00,0.0111
1371.00,0.0110
1370.00,0.0110
1369.00,0.0109
1368.00,0.0108
1367.00,0.0107
1366.00,0.0107
1365.00,0.0107
1364.00,0.0106
1363.00,0.0105
1362.00,0.0104
1361.00,0.0102
1360.00,0.0100
1359.00,0.0098
1358.00,0.0096
1357.00,0.0095
1356.00,0.0093
1355.00,0.0092
1354.00,0.0092
1353.00,0.0091
1352.00,0.0091
1351.00,0.0091
1350.00,0.0091
1349.00,0.0091
1348.00,0.0090
1347.00,0.0089
1346.00,0.0088
1345.00,0.0087
1344.00,0.0085
1343.00,0.0083
1342.00,0.0082
1341.00,0.0080
1340.00,0.0079
1339.00,0.0079
1338.00,0.0078
1337.00,0.0079
1336.00,0.0080
1335.00,0.0081
1334.00,0.0083
1333.00,0.0086
1332.00,0.0088
1331.00,0.0090
1330.00,0.0092
1329.00,0.0093
1328.00,0.0093
1327.00,0.0093
1326.00,0.0092
1325.00,0.0091
1324.00,0.0090
1323.00,0.0089
1322.00,0.0088
1321.00,0.0087
1320.00,0.0087
1319.00,0.0087
1318.00,0.0088
1317.00,0.0088
1316.00,0.0089
1315.00,0.0090
1314.00,0.0091
1313.00,0.0092
1312.00,0.0092
1311.00,0.0091
1310.00,0.0091
1309.00,0.0090
1308.00,0.0088
1307.00,0.0087
1306.00,0.0085
1305.00,0.0084
1304.00,0.0083
1303.00,0.0081
1302.00,0.0081
1301.00,0.0080
1300.00,0.0079
1299.00,0.0079
1298.00,0.0079
1297.00,0.0079
1296.00,0.0080
1295.00,0.0081
1294.00,0.0081
1293.00,0.0082
1292.00,0.0081
1291.00,0.0081
1290.00,0.0080
1289.00,0.0078
1288.00,0.0077
1287.00,0.0076
1286.00,0.0075
1285.00,0.0074
1284.00,0.0073
1283.00,0.0072
1282.00,0.0072
1281.00,0.0071
1280.00,0.0070
1279.00,0.0070
1278.00,0.0069
1277.00,0.0067
1276.00,0.0066
1275.00,0.0064
1274.00,0.0062
1273.00,0.0060
1272.00,0.0059
1271.00,0.0058
1270.00,0.0057
1269.00,0.0055
1268.00,0.0054
1267.00,0.0053
1266.00,0.0053
1265.00,0.0053
1264.00,0.0052
1263.00,0.0051
1262.00,0.0051
1261.00,0.0050
1260.00,0.0050
1259.00,0.0049
1258.00,0.0049
1257.00,0.0049
1256.00,0.0049
1255.00,0.0049
1254.00,0.0049
1253.00,0.0049
1252.00,0.0050
1251.00,0.0050
1250.00,0.0050
1249.00,0.0050
1248.00,0.0050
1247.00,0.0051
1246.00,0.0051
1245.00,0.0051
1244.00,0.0051
1243.00,0.0051
1242.00,0.0051
1241.00,0.0051
1240.00,0.0051
1239.00,0.0051
1238.00,0.0051
1237.00,0.0050
1236.00,0.0050
1235.00,0.0050
1234.00,0.0050
1233.00,0.0050
1232.00,0.0050
1231.00,0.0050
1230.00,0.0050
1229.00,0.0050
1228.00,0.0050
1227.00,0.0050
1226.00,0.0050
1225.00,0.0051
1224.00,0.0051
1223.00,0.0051
1222.00,0.0051
1221.00,0.0051
1220.00,0.0051
1219.00,0.0051
1218.00,0.0051
1217.00,0.0051
1216.00,0.0051
1215.00,0.0051
1214.00,0.0052
1213.00,0.0053
1212.00,0.0053
1211.00,0.0054
1210.00,0.0055
1209.00,0.0057
1208.00,0.0058
1207.00,0.0059
1206.00,0.0061
1205.00,0.0062
1204.00,0.0064
1203.00,0.0066
1202.00,0.0068
1201.00,0.0070
1200.00,0.0072
1199.00,0.0073
1198.00,0.0075
1197.00,0.0076
1196.00,0.0076
1195.00,0.0077
1194.00,0.0077
1193.00,0.0077
1192.00,0.0078
1191.00,0.0078
1190.00,0.0079
1189.00,0.0080
1188.00,0.0081
1187.00,0.0084
1186.00,0.0088
1185.00,0.0092
1184.00,0.0097
1183.00,0.0101
1182.00,0.0105
1181.00,0.0105
1180.00,0.0103
1179.00,0.0098
1178.00,0.0092
1177.00,0.0085
1176.00,0.0078
1175.00,0.0072
1174.00,0.0068
1173.00,0.0066
1172.00,0.0063
1171.00,0.0062
1170.00,0.0062
1169.00,0.0062
1168.00,0.0061
1167.00,0.0061
1166.00,0.0061
1165.00,0.0062
1164.00,0.0062
1163.00,0.0064
1162.00,0.0067
1161.00,0.0071
1160.00,0.0076
1159.00,0.0082
1158.00,0.0089
1157.00,0.0096
1156.00,0.0102
1155.00,0.0105
1154.00,0.0105
1153.00,0.0102
1152.00,0.0095
1151.00,0.0086
1150.00,0.0078
1149.00,0.0070
1148.00,0.0064
1147.00,0.0059
1146.00,0.0056
1145.00,0.0053
1144.00,0.0050
1143.00,0.0048
1142.00,0.0046
1141.00,0.0045
1140.00,0.0043
1139.00,0.0042
1138.00,0.0042
1137.00,0.0041
1136.00,0.0041
1135.00,0.0041
1134.00,0.0041
1133.00,0.0041
1132.00,0.0041
1131.00,0.0041
1130.00,0.0041
1129.00,0.0041
1128.00,0.0041
1127.00,0.0041
1126.00,0.0041
1125.00,0.0041
1124.00,0.0042
1123.00,0.0042
1122.00,0.0043
1121.00,0.0045
1120.00,0.0046
1119.00,0.0047
1118.00,0.0050
1117.00,0.0051
1116.00,0.0053
1115.00,0.0054
1114.00,0.0055
1113.00,0.0056
1112.00,0.0056
1111.00,0.0056
1110.00,0.0056
1109.00,0.0056
1108.00,0.0055
1107.00,0.0055
1106.00,0.0056
1105.00,0.0056
1104.00,0.0056
1103.00,0.0056
1102.00,0.0057
1101.00,0.0058
1100.00,0.0058
1099.00,0.0059
1098.00,0.0060
1097.00,0.0061
1096.00,0.0061
1095.00,0.0062
1094.00,0.0063
1093.00,0.0064
1092.00,0.0065
1091.00,0.0065
1090.00,0.0067
1089.00,0.0068
1088.00,0.0070
1087.00,0.0072
1086.00,0.0074
1085.00,0.0077
1084.00,0.0079
1083.00,0.0082
1082.00,0.0086
1081.00,0.0089
1080.00,0.0092
1079.00,0.0095
1078.00,0.0098
1077.00,0.0103
1076.00,0.0107
1075.00,0.0113
1074.00,0.0119
1073.00,0.0125
1072.00,0.0130
1071.00,0.0135
1070.00,0.0138
1069.00,0.0140
1068.00,0.0140
1067.00,0.0138
1066.00,0.0135
1065.00,0.0130
1064.00,0.0125
1063.00,0.0119
1062.00,0.0113
1061.00,0.0108
1060.00,0.0104
1059.00,0.0100
1058.00,0.0097
1057.00,0.0094
1056.00,0.0091
1055.00,0.0088
1054.00,0.0086
1053.00,0.0083
1052.00,0.0080
1051.00,0.0078
1050.00,0.0077
1049.00,0.0075
1048.00,0.0074
1047.00,0.0072
1046.00,0.0072
1045.00,0.0071
1044.00,0.0070
1043.00,0.0070
1042.00,0.0071
1041.00,0.0072
1040.00,0.0074
1039.00,0.0077
1038.00,0.0083
1037.00,0.0092
1036.00,0.0104
1035.00,0.0121
1034.00,0.0142
1033.00,0.0165
1032.00,0.0188
1031.00,0.0210
1030.00,0.0229
1029.00,0.0241
1028.00,0.0244
1027.00,0.0240
1026.00,0.0229
1025.00,0.0213
1024.00,0.0195
1023.00,0.0178
1022.00,0.0164
1021.00,0.0152
1020.00,0.0142
1019.00,0.0133
1018.00,0.0126
1017.00,0.0120
1016.00,0.0115
1015.00,0.0110
1014.00,0.0106
1013.00,0.0102
1012.00,0.0098
1011.00,0.0095
1010.00,0.0093
1009.00,0.0092
1008.00,0.0092
1007.00,0.0093
1006.00,0.0096
1005.00,0.0099
1004.00,0.0101
1003.00,0.0101
1002.00,0.0099
1001.00,0.0094
1000.00,0.0087
999.00,0.0081
998.00,0.0076
997.00,0.0073
996.00,0.0071
995.00,0.0070
994.00,0.0070
993.00,0.0069
992.00,0.0069
991.00,0.0070
990.00,0.0071
989.00,0.0073
988.00,0.0074
987.00,0.0076
986.00,0.0078
985.00,0.0081
984.00,0.0083
983.00,0.0085
982.00,0.0087
981.00,0.0089
980.00,0.0089
979.00,0.0089
978.00,0.0088
977.00,0.0086
976.00,0.0084
975.00,0.0082
974.00,0.0081
973.00,0.0081
972.00,0.0080
971.00,0.0082
970.00,0.0084
969.00,0.0087
968.00,0.0090
967.00,0.0094
966.00,0.0097
965.00,0.0099
964.00,0.0099
963.00,0.0097
962.00,0.0094
961.00,0.0091
960.00,0.0086
959.00,0.0082
958.00,0.0078
957.00,0.0075
956.00,0.0072
955.00,0.0070
954.00,0.0069
953.00,0.0068
952.00,0.0067
951.00,0.0067
950.00,0.0068
949.00,0.0070
948.00,0.0071
947.00,0.0072
946.00,0.0073
945.00,0.0075
944.00,0.0076
943.00,0.0076
942.00,0.0077
941.00,0.0076
940.00,0.0074
939.00,0.0071
938.00,0.0069
937.00,0.0066
936.00,0.0063
935.00,0.0061
934.00,0.0059
933.00,0.0057
932.00,0.0055
931.00,0.0054
930.00,0.0053
929.00,0.0053
928.00,0.0052
927.00,0.0052
926.00,0.0053
925.00,0.0053
924.00,0.0054
923.00,0.0055
922.00,0.0057
921.00,0.0060
920.00,0.0062
919.00,0.0065
918.00,0.0068
917.00,0.0073
916.00,0.0079
915.00,0.0087
914.00,0.0096
913.00,0.0107
912.00,0.0118
911.00,0.0130
910.00,0.0141
909.00,0.0152
908.00,0.0159
907.00,0.0163
906.00,0.0164
905.00,0.0160
904.00,0.0153
903.00,0.0143
902.00,0.0132
901.00,0.0119
900.00,0.0107
899.00,0.0095
898.00,0.0085
897.00,0.0077
896.00,0.0070
895.00,0.0065
894.00,0.0061
893.00,0.0058
892.00,0.0055
891.00,0.0053
890.00,0.0051
889.00,0.0049
888.00,0.0048
887.00,0.0046
886.00,0.0045
885.00,0.0044
884.00,0.0043
883.00,0.0042
882.00,0.0042
881.00,0.0041
880.00,0.0040
879.00,0.0040
878.00,0.0039
877.00,0.0039
876.00,0.0038
875.00,0.0037
874.00,0.0037
873.00,0.0037
872.00,0.0037
871.00,0.0036
870.00,0.0037
869.00,0.0037
868.00,0.0036
867.00,0.0036
866.00,0.0035
865.00,0.0035
864.00,0.0035
863.00,0.0035
862.00,0.0036
861.00,0.0036
860.00,0.0036
859.00,0.0036
858.00,0.0037
857.00,0.0037
856.00,0.0038
855.00,0.0039
854.00,0.0041
853.00,0.0043
852.00,0.0045
851.00,0.0048
850.00,0.0052
849.00,0.0057
848.00,0.0062
847.00,0.0067
846.00,0.0072
845.00,0.0076
844.00,0.0080
843.00,0.0082
842.00,0.0084
841.00,0.0084
840.00,0.0081
839.00,0.0078
838.00,0.0074
837.00,0.0069
836.00,0.0063
835.00,0.0057
834.00,0.0052
833.00,0.0048
832.00,0.0045
831.00,0.0042
830.00,0.0040
829.00,0.0039
828.00,0.0038
827.00,0.0037
826.00,0.0037
825.00,0.0036
824.00,0.0035
823.00,0.0034
822.00,0.0034
821.00,0.0035
820.00,0.0034
819.00,0.0035
818.00,0.0035
817.00,0.0036
816.00,0.0036
815.00,0.0036
814.00,0.0037
813.00,0.0038
812.00,0.0038
811.00,0.0038
810.00,0.0039
809.00,0.0039
808.00,0.0039
807.00,0.0039
806.00,0.0039
805.00,0.0040
804.00,0.0040
803.00,0.0040
802.00,0.0042
801.00,0.0043
800.00,0.0045
799.00,0.0047
798.00,0.0050
797.00,0.0052
796.00,0.0054
795.00,0.0056
794.00,0.0060
793.00,0.0064
792.00,0.0068
791.00,0.0072
790.00,0.0077
789.00,0.0082
788.00,0.0087
787.00,0.0092
786.00,0.0099
785.00,0.0105
784.00,0.0112
783.00,0.0119
782.00,0.0127
781.00,0.0137
780.00,0.0148
779.00,0.0160
778.00,0.0175
777.00,0.0191
776.00,0.0209
775.00,0.0228
774.00,0.0250
773.00,0.0273
772.00,0.0297
771.00,0.0324
770.00,0.0353
769.00,0.0382
768.00,0.0411
767.00,0.0440
766.00,0.0468
765.00,0.0496
764.00,0.0523
763.00,0.0551
762.00,0.0581
761.00,0.0610
760.00,0.0639
759.00,0.0665
758.00,0.0689
757.00,0.0708
756.00,0.0720
755.00,0.0726
754.00,0.0728
753.00,0.0726
752.00,0.0723
751.00,0.0720
750.00,0.0718
749.00,0.0716
748.00,0.0710
747.00,0.0697
746.00,0.0677
745.00,0.0647
744.00,0.0606
743.00,0.0560
742.00,0.0511
741.00,0.0463
740.00,0.0417
739.00,0.0375
738.00,0.0338
737.00,0.0304
736.00,0.0271
735.00,0.0239
734.00,0.0209
733.00,0.0181
732.00,0.0156
731.00,0.0136
730.00,0.0120
729.00,0.0108
728.00,0.0099
727.00,0.0092
726.00,0.0087
725.00,0.0084
724.00,0.0082
723.00,0.0081
722.00,0.0081
721.00,0.0081
720.00,0.0080
719.00,0.0081
718.00,0.0084
717.00,0.0088
716.00,0.0095
715.00,0.0104
714.00,0.0116
713.00,0.0133
712.00,0.0155
711.00,0.0187
710.00,0.0230
709.00,0.0286
708.00,0.0355
707.00,0.0439
706.00,0.0539
705.00,0.0654
704.00,0.0781
703.00,0.0920
702.00,0.1069
701.00,0.1225
700.00,0.1386
699.00,0.1548
698.00,0.1710
697.00,0.1858
696.00,0.1973
695.00,0.2030
694.00,0.2007
693.00,0.1897
692.00,0.1717
691.00,0.1505
690.00,0.1296
689.00,0.1111
688.00,0.0957
687.00,0.0833
686.00,0.0737
685.00,0.0659
684.00,0.0595
683.00,0.0542
682.00,0.0499
681.00,0.0462
680.00,0.0429
679.00,0.0402
678.00,0.0380
677.00,0.0362
676.00,0.0344
675.00,0.0329
674.00,0.0316
673.00,0.0305
672.00,0.0294
671.00,0.0284
670.00,0.0277
669.00,0.0268
668.00,0.0256
667.00,0.0244
666.00,0.0234
665.00,0.0225
664.00,0.0215
663.00,0.0206
662.00,0.0198
661.00,0.0190
660.00,0.0182
659.00,0.0174
658.00,0.0167
657.00,0.0161
656.00,0.0155
655.00,0.0149
654.00,0.0144
653.00,0.0139
652.00,0.0134
651.00,0.0130
650.00,0.0127
649.00,0.0124
648.00,0.0119
647.00,0.0115
646.00,0.0112
645.00,0.0110
644.00,0.0108
643.00,0.0106
642.00,0.0105
641.00,0.0105
640.00,0.0105
639.00,0.0105
638.00,0.0108
637.00,0.0111
636.00,0.0113
635.00,0.0116
634.00,0.0120
633.00,0.0123
632.00,0.0125
631.00,0.0127
630.00,0.0131
629.00,0.0134
628.00,0.0135
627.00,0.0137
626.00,0.0139
625.00,0.0141
624.00,0.0142
623.00,0.0144
622.00,0.0148
621.00,0.0150
620.00,0.0149
619.00,0.0145
618.00,0.0141
617.00,0.0136
616.00,0.0132
615.00,0.0129
614.00,0.0127
613.00,0.0126
612.00,0.0123
611.00,0.0120
610.00,0.0119
609.00,0.0118
608.00,0.0116
607.00,0.0114
606.00,0.0114
605.00,0.0114
604.00,0.0112
603.00,0.0111
602.00,0.0113
601.00,0.0116
600.00,0.0117
599.00,0.0119
598.00,0.0122
597.00,0.0124
596.00,0.0125
595.00,0.0127
594.00,0.0129
593.00,0.0132
592.00,0.0133
591.00,0.0135
590.00,0.0137
589.00,0.0139
588.00,0.0140
587.00,0.0141
586.00,0.0145
585.00,0.0149
584.00,0.0152
583.00,0.0155
582.00,0.0161
581.00,0.0167
580.00,0.0172
579.00,0.0177
578.00,0.0186
577.00,0.0195
576.00,0.0205
575.00,0.0215
574.00,0.0227
573.00,0.0237
572.00,0.0245
571.00,0.0254
570.00,0.0264
569.00,0.0275
568.00,0.0283
567.00,0.0292
566.00,0.0303
565.00,0.0312
564.00,0.0319
563.00,0.0327
562.00,0.0336
561.00,0.0346
560.00,0.0354
559.00,0.0363
558.00,0.0375
557.00,0.0386
556.00,0.0395
555.00,0.0404
554.00,0.0415
553.00,0.0427
552.00,0.0439
551.00,0.0452
550.00,0.0467
549.00,0.0484
548.00,0.0500
547.00,0.0518
546.00,0.0540
545.00,0.0564
544.00,0.0587
543.00,0.0610
542.00,0.0634
541.00,0.0657
540.00,0.0674
539.00,0.0686
538.00,0.0692
537.00,0.0689
536.00,0.0675
535.00,0.0652
534.00,0.0625
533.00,0.0593
532.00,0.0555
531.00,0.0516
530.00,0.0480
529.00,0.0446
528.00,0.0413
527.00,0.0383
526.00,0.0357
525.00,0.0333
524.00,0.0310
523.00,0.0292
522.00,0.0277
521.00,0.0264
520.00,0.0251
519.00,0.0240
518.00,0.0232
517.00,0.0226
516.00,0.0216
515.00,0.0206
514.00,0.0200
513.00,0.0195
512.00,0.0188
511.00,0.0181
510.00,0.0177
509.00,0.0173
508.00,0.0167
507.00,0.0160
506.00,0.0156
505.00,0.0151
504.00,0.0144
503.00,0.0137
502.00,0.0134
501.00,0.0132
500.00,0.0130
499.00,0.0128
498.00,0.0128
497.00,0.0127
496.00,0.0123
495.00,0.0120
494.00,0.0119
493.00,0.0118
492.00,0.0114
491.00,0.0112
490.00,0.0112
489.00,0.0112
488.00,0.0108
487.00,0.0105
486.00,0.0105
485.00,0.0105
484.00,0.0102
483.00,0.0099
482.00,0.0099
481.00,0.0098
480.00,0.0093
479.00,0.0091
478.00,0.0093
477.00,0.0095
476.00,0.0091
475.00,0.0089
474.00,0.0091
473.00,0.0094
472.00,0.0091
471.00,0.0088
470.00,0.0088
469.00,0.0088
468.00,0.0085
467.00,0.0083
466.00,0.0086
465.00,0.0089
464.00,0.0087
463.00,0.0085
462.00,0.0085
461.00,0.0084
460.00,0.0078
459.00,0.0075
458.00,0.0078
457.00,0.0082
456.00,0.0079
455.00,0.0076
454.00,0.0076
453.00,0.0076
452.00,0.0072
451.00,0.0071
450.00,0.0074
449.00,0.0076
448.00,0.0073
447.00,0.0072
446.00,0.0077
445.00,0.0082
444.00,0.0079
443.00,0.0076
442.00,0.0078
441.00,0.0078
440.00,0.0074
439.00,0.0072
438.00,0.0077
437.00,0.0081
436.00,0.0078
435.00,0.0074
434.00,0.0074
433.00,0.0074
432.00,0.0068
431.00,0.0065
430.00,0.0069
429.00,0.0072
428.00,0.0068
427.00,0.0065
426.00,0.0070
425.00,0.0074
424.00,0.0069
423.00,0.0064
422.00,0.0070
421.00,0.0080
420.00,0.0083
419.00,0.0084
418.00,0.0086
417.00,0.0080
416.00,0.0066
415.00,0.0056
414.00,0.0060
413.00,0.0063
412.00,0.0058
411.00,0.0056
410.00,0.0066
409.00,0.0077
408.00,0.0077
407.00,0.0078
406.00,0.0088
405.00,0.0093
404.00,0.0083
403.00,0.0074
402.00,0.0081
401.00,0.0085
400.00,0.0066
