Created as New Dataset,Sample 721 By YargerLab Date Tuesday, June 24 2025
cm-1,A
4000.00,0.0017
3999.00,0.0017
3998.00,0.0017
3997.00,0.0017
3996.00,0.0017
3995.00,0.0017
3994.00,0.0017
3993.00,0.0017
3992.00,0.0017
3991.00,0.0017
3990.00,0.0017
3989.00,0.0017
3988.00,0.0017
3987.00,0.0017
3986.00,0.0017
3985.00,0.0017
3984.00,0.0017
3983.00,0.0017
3982.00,0.0017
3981.00,0.0017
3980.00,0.0017
3979.00,0.0017
3978.00,0.0017
3977.00,0.0017
3976.00,0.0017
3975.00,0.0016
3974.00,0.0016
3973.00,0.0016
3972.00,0.0016
3971.00,0.0016
3970.00,0.0016
3969.00,0.0016
3968.00,0.0017
3967.00,0.0017
3966.00,0.0017
3965.00,0.0017
3964.00,0.0017
3963.00,0.0017
3962.00,0.0016
3961.00,0.0016
3960.00,0.0016
3959.00,0.0016
3958.00,0.0016
3957.00,0.0016
3956.00,0.0017
3955.00,0.0017
3954.00,0.0017
3953.00,0.0017
3952.00,0.0017
3951.00,0.0017
3950.00,0.0017
3949.00,0.0017
3948.00,0.0017
3947.00,0.0017
3946.00,0.0017
3945.00,0.0017
3944.00,0.0017
3943.00,0.0017
3942.00,0.0017
3941.00,0.0017
3940.00,0.0017
3939.00,0.0017
3938.00,0.0017
3937.00,0.0017
3936.00,0.0017
3935.00,0.0017
3934.00,0.0017
3933.00,0.0017
3932.00,0.0017
3931.00,0.0017
3930.00,0.0017
3929.00,0.0017
3928.00,0.0017
3927.00,0.0017
3926.00,0.0017
3925.00,0.0017
3924.00,0.0017
3923.00,0.0016
3922.00,0.0016
3921.00,0.0016
3920.00,0.0016
3919.00,0.0016
3918.00,0.0016
3917.00,0.0016
3916.00,0.0016
3915.00,0.0016
3914.00,0.0016
3913.00,0.0016
3912.00,0.0016
3911.00,0.0016
3910.00,0.0016
3909.00,0.0016
3908.00,0.0016
3907.00,0.0016
3906.00,0.0016
3905.00,0.0016
3904.00,0.0016
3903.00,0.0016
3902.00,0.0016
3901.00,0.0016
3900.00,0.0016
3899.00,0.0016
3898.00,0.0016
3897.00,0.0016
3896.00,0.0016
3895.00,0.0016
3894.00,0.0016
3893.00,0.0017
3892.00,0.0017
3891.00,0.0017
3890.00,0.0017
3889.00,0.0016
3888.00,0.0016
3887.00,0.0016
3886.00,0.0016
3885.00,0.0016
3884.00,0.0016
3883.00,0.0016
3882.00,0.0016
3881.00,0.0016
3880.00,0.0016
3879.00,0.0016
3878.00,0.0016
3877.00,0.0016
3876.00,0.0016
3875.00,0.0016
3874.00,0.0016
3873.00,0.0016
3872.00,0.0016
3871.00,0.0016
3870.00,0.0015
3869.00,0.0016
3868.00,0.0016
3867.00,0.0016
3866.00,0.0016
3865.00,0.0016
3864.00,0.0016
3863.00,0.0016
3862.00,0.0016
3861.00,0.0016
3860.00,0.0016
3859.00,0.0016
3858.00,0.0016
3857.00,0.0015
3856.00,0.0015
3855.00,0.0015
3854.00,0.0016
3853.00,0.0016
3852.00,0.0016
3851.00,0.0016
3850.00,0.0015
3849.00,0.0015
3848.00,0.0016
3847.00,0.0016
3846.00,0.0016
3845.00,0.0016
3844.00,0.0016
3843.00,0.0016
3842.00,0.0016
3841.00,0.0016
3840.00,0.0016
3839.00,0.0016
3838.00,0.0016
3837.00,0.0016
3836.00,0.0016
3835.00,0.0016
3834.00,0.0016
3833.00,0.0016
3832.00,0.0016
3831.00,0.0017
3830.00,0.0017
3829.00,0.0017
3828.00,0.0017
3827.00,0.0017
3826.00,0.0017
3825.00,0.0016
3824.00,0.0016
3823.00,0.0016
3822.00,0.0016
3821.00,0.0016
3820.00,0.0017
3819.00,0.0017
3818.00,0.0016
3817.00,0.0016
3816.00,0.0016
3815.00,0.0016
3814.00,0.0016
3813.00,0.0016
3812.00,0.0016
3811.00,0.0016
3810.00,0.0016
3809.00,0.0016
3808.00,0.0016
3807.00,0.0016
3806.00,0.0016
3805.00,0.0016
3804.00,0.0016
3803.00,0.0016
3802.00,0.0016
3801.00,0.0016
3800.00,0.0017
3799.00,0.0017
3798.00,0.0017
3797.00,0.0016
3796.00,0.0017
3795.00,0.0017
3794.00,0.0017
3793.00,0.0017
3792.00,0.0017
3791.00,0.0016
3790.00,0.0017
3789.00,0.0017
3788.00,0.0017
3787.00,0.0017
3786.00,0.0017
3785.00,0.0017
3784.00,0.0017
3783.00,0.0017
3782.00,0.0017
3781.00,0.0017
3780.00,0.0017
3779.00,0.0017
3778.00,0.0017
3777.00,0.0017
3776.00,0.0017
3775.00,0.0017
3774.00,0.0017
3773.00,0.0017
3772.00,0.0017
3771.00,0.0017
3770.00,0.0017
3769.00,0.0017
3768.00,0.0017
3767.00,0.0017
3766.00,0.0017
3765.00,0.0017
3764.00,0.0017
3763.00,0.0017
3762.00,0.0017
3761.00,0.0017
3760.00,0.0017
3759.00,0.0017
3758.00,0.0017
3757.00,0.0017
3756.00,0.0017
3755.00,0.0017
3754.00,0.0017
3753.00,0.0017
3752.00,0.0017
3751.00,0.0017
3750.00,0.0016
3749.00,0.0016
3748.00,0.0015
3747.00,0.0015
3746.00,0.0015
3745.00,0.0015
3744.00,0.0015
3743.00,0.0016
3742.00,0.0016
3741.00,0.0016
3740.00,0.0016
3739.00,0.0016
3738.00,0.0016
3737.00,0.0016
3736.00,0.0016
3735.00,0.0016
3734.00,0.0015
3733.00,0.0015
3732.00,0.0015
3731.00,0.0015
3730.00,0.0015
3729.00,0.0015
3728.00,0.0015
3727.00,0.0015
3726.00,0.0015
3725.00,0.0016
3724.00,0.0016
3723.00,0.0016
3722.00,0.0016
3721.00,0.0016
3720.00,0.0016
3719.00,0.0015
3718.00,0.0015
3717.00,0.0016
3716.00,0.0016
3715.00,0.0016
3714.00,0.0016
3713.00,0.0015
3712.00,0.0015
3711.00,0.0015
3710.00,0.0015
3709.00,0.0015
3708.00,0.0015
3707.00,0.0015
3706.00,0.0015
3705.00,0.0015
3704.00,0.0015
3703.00,0.0015
3702.00,0.0015
3701.00,0.0015
3700.00,0.0015
3699.00,0.0015
3698.00,0.0015
3697.00,0.0015
3696.00,0.0015
3695.00,0.0015
3694.00,0.0015
3693.00,0.0015
3692.00,0.0015
3691.00,0.0015
3690.00,0.0015
3689.00,0.0015
3688.00,0.0015
3687.00,0.0015
3686.00,0.0014
3685.00,0.0014
3684.00,0.0014
3683.00,0.0014
3682.00,0.0014
3681.00,0.0014
3680.00,0.0013
3679.00,0.0013
3678.00,0.0012
3677.00,0.0012
3676.00,0.0011
3675.00,0.0011
3674.00,0.0011
3673.00,0.0011
3672.00,0.0010
3671.00,0.0010
3670.00,0.0010
3669.00,0.0010
3668.00,0.0010
3667.00,0.0010
3666.00,0.0010
3665.00,0.0010
3664.00,0.0010
3663.00,0.0010
3662.00,0.0010
3661.00,0.0010
3660.00,0.0010
3659.00,0.0010
3658.00,0.0010
3657.00,0.0010
3656.00,0.0010
3655.00,0.0010
3654.00,0.0011
3653.00,0.0010
3652.00,0.0010
3651.00,0.0011
3650.00,0.0011
3649.00,0.0011
3648.00,0.0011
3647.00,0.0011
3646.00,0.0011
3645.00,0.0012
3644.00,0.0012
3643.00,0.0011
3642.00,0.0011
3641.00,0.0011
3640.00,0.0011
3639.00,0.0011
3638.00,0.0011
3637.00,0.0011
3636.00,0.0012
3635.00,0.0012
3634.00,0.0012
3633.00,0.0013
3632.00,0.0013
3631.00,0.0013
3630.00,0.0013
3629.00,0.0013
3628.00,0.0014
3627.00,0.0014
3626.00,0.0014
3625.00,0.0014
3624.00,0.0014
3623.00,0.0015
3622.00,0.0015
3621.00,0.0015
3620.00,0.0015
3619.00,0.0015
3618.00,0.0015
3617.00,0.0015
3616.00,0.0015
3615.00,0.0015
3614.00,0.0015
3613.00,0.0015
3612.00,0.0015
3611.00,0.0015
3610.00,0.0015
3609.00,0.0015
3608.00,0.0015
3607.00,0.0015
3606.00,0.0015
3605.00,0.0015
3604.00,0.0016
3603.00,0.0016
3602.00,0.0016
3601.00,0.0016
3600.00,0.0016
3599.00,0.0016
3598.00,0.0016
3597.00,0.0016
3596.00,0.0017
3595.00,0.0017
3594.00,0.0017
3593.00,0.0017
3592.00,0.0017
3591.00,0.0017
3590.00,0.0017
3589.00,0.0017
3588.00,0.0017
3587.00,0.0017
3586.00,0.0016
3585.00,0.0016
3584.00,0.0016
3583.00,0.0016
3582.00,0.0016
3581.00,0.0017
3580.00,0.0017
3579.00,0.0017
3578.00,0.0017
3577.00,0.0017
3576.00,0.0017
3575.00,0.0016
3574.00,0.0016
3573.00,0.0016
3572.00,0.0016
3571.00,0.0016
3570.00,0.0016
3569.00,0.0016
3568.00,0.0016
3567.00,0.0015
3566.00,0.0015
3565.00,0.0015
3564.00,0.0015
3563.00,0.0015
3562.00,0.0015
3561.00,0.0016
3560.00,0.0016
3559.00,0.0016
3558.00,0.0016
3557.00,0.0016
3556.00,0.0016
3555.00,0.0016
3554.00,0.0016
3553.00,0.0016
3552.00,0.0016
3551.00,0.0016
3550.00,0.0016
3549.00,0.0016
3548.00,0.0016
3547.00,0.0016
3546.00,0.0016
3545.00,0.0016
3544.00,0.0016
3543.00,0.0016
3542.00,0.0016
3541.00,0.0016
3540.00,0.0017
3539.00,0.0017
3538.00,0.0017
3537.00,0.0017
3536.00,0.0017
3535.00,0.0017
3534.00,0.0017
3533.00,0.0017
3532.00,0.0017
3531.00,0.0017
3530.00,0.0017
3529.00,0.0017
3528.00,0.0017
3527.00,0.0017
3526.00,0.0017
3525.00,0.0017
3524.00,0.0017
3523.00,0.0017
3522.00,0.0017
3521.00,0.0017
3520.00,0.0017
3519.00,0.0017
3518.00,0.0017
3517.00,0.0017
3516.00,0.0017
3515.00,0.0017
3514.00,0.0018
3513.00,0.0018
3512.00,0.0018
3511.00,0.0018
3510.00,0.0018
3509.00,0.0018
3508.00,0.0018
3507.00,0.0018
3506.00,0.0018
3505.00,0.0018
3504.00,0.0018
3503.00,0.0018
3502.00,0.0019
3501.00,0.0019
3500.00,0.0019
3499.00,0.0019
3498.00,0.0019
3497.00,0.0019
3496.00,0.0018
3495.00,0.0018
3494.00,0.0018
3493.00,0.0018
3492.00,0.0018
3491.00,0.0018
3490.00,0.0018
3489.00,0.0019
3488.00,0.0019
3487.00,0.0019
3486.00,0.0019
3485.00,0.0018
3484.00,0.0018
3483.00,0.0018
3482.00,0.0019
3481.00,0.0019
3480.00,0.0019
3479.00,0.0019
3478.00,0.0019
3477.00,0.0019
3476.00,0.0019
3475.00,0.0019
3474.00,0.0019
3473.00,0.0019
3472.00,0.0019
3471.00,0.0019
3470.00,0.0019
3469.00,0.0019
3468.00,0.0019
3467.00,0.0019
3466.00,0.0019
3465.00,0.0019
3464.00,0.0019
3463.00,0.0019
3462.00,0.0019
3461.00,0.0019
3460.00,0.0019
3459.00,0.0019
3458.00,0.0019
3457.00,0.0019
3456.00,0.0019
3455.00,0.0019
3454.00,0.0019
3453.00,0.0019
3452.00,0.0019
3451.00,0.0019
3450.00,0.0019
3449.00,0.0019
3448.00,0.0019
3447.00,0.0019
3446.00,0.0019
3445.00,0.0019
3444.00,0.0019
3443.00,0.0019
3442.00,0.0019
3441.00,0.0019
3440.00,0.0019
3439.00,0.0019
3438.00,0.0019
3437.00,0.0019
3436.00,0.0020
3435.00,0.0020
3434.00,0.0020
3433.00,0.0020
3432.00,0.0020
3431.00,0.0020
3430.00,0.0020
3429.00,0.0020
3428.00,0.0019
3427.00,0.0019
3426.00,0.0019
3425.00,0.0020
3424.00,0.0020
3423.00,0.0020
3422.00,0.0020
3421.00,0.0019
3420.00,0.0019
3419.00,0.0019
3418.00,0.0019
3417.00,0.0019
3416.00,0.0019
3415.00,0.0019
3414.00,0.0019
3413.00,0.0019
3412.00,0.0019
3411.00,0.0019
3410.00,0.0019
3409.00,0.0019
3408.00,0.0019
3407.00,0.0019
3406.00,0.0019
3405.00,0.0019
3404.00,0.0019
3403.00,0.0019
3402.00,0.0019
3401.00,0.0019
3400.00,0.0019
3399.00,0.0019
3398.00,0.0019
3397.00,0.0019
3396.00,0.0019
3395.00,0.0019
3394.00,0.0019
3393.00,0.0020
3392.00,0.0020
3391.00,0.0020
3390.00,0.0020
3389.00,0.0019
3388.00,0.0019
3387.00,0.0019
3386.00,0.0019
3385.00,0.0019
3384.00,0.0019
3383.00,0.0019
3382.00,0.0019
3381.00,0.0019
3380.00,0.0019
3379.00,0.0019
3378.00,0.0019
3377.00,0.0020
3376.00,0.0020
3375.00,0.0020
3374.00,0.0020
3373.00,0.0020
3372.00,0.0020
3371.00,0.0020
3370.00,0.0020
3369.00,0.0020
3368.00,0.0020
3367.00,0.0019
3366.00,0.0019
3365.00,0.0019
3364.00,0.0019
3363.00,0.0019
3362.00,0.0019
3361.00,0.0019
3360.00,0.0019
3359.00,0.0019
3358.00,0.0019
3357.00,0.0020
3356.00,0.0020
3355.00,0.0020
3354.00,0.0019
3353.00,0.0019
3352.00,0.0019
3351.00,0.0019
3350.00,0.0019
3349.00,0.0019
3348.00,0.0019
3347.00,0.0019
3346.00,0.0019
3345.00,0.0019
3344.00,0.0019
3343.00,0.0019
3342.00,0.0019
3341.00,0.0020
3340.00,0.0020
3339.00,0.0020
3338.00,0.0020
3337.00,0.0020
3336.00,0.0019
3335.00,0.0019
3334.00,0.0019
3333.00,0.0019
3332.00,0.0019
3331.00,0.0020
3330.00,0.0020
3329.00,0.0020
3328.00,0.0020
3327.00,0.0020
3326.00,0.0019
3325.00,0.0019
3324.00,0.0019
3323.00,0.0019
3322.00,0.0019
3321.00,0.0019
3320.00,0.0019
3319.00,0.0019
3318.00,0.0019
3317.00,0.0019
3316.00,0.0019
3315.00,0.0019
3314.00,0.0019
3313.00,0.0018
3312.00,0.0018
3311.00,0.0018
3310.00,0.0018
3309.00,0.0019
3308.00,0.0019
3307.00,0.0019
3306.00,0.0019
3305.00,0.0019
3304.00,0.0019
3303.00,0.0019
3302.00,0.0019
3301.00,0.0019
3300.00,0.0019
3299.00,0.0019
3298.00,0.0019
3297.00,0.0019
3296.00,0.0019
3295.00,0.0019
3294.00,0.0019
3293.00,0.0019
3292.00,0.0019
3291.00,0.0019
3290.00,0.0019
3289.00,0.0019
3288.00,0.0018
3287.00,0.0018
3286.00,0.0018
3285.00,0.0019
3284.00,0.0019
3283.00,0.0019
3282.00,0.0019
3281.00,0.0019
3280.00,0.0019
3279.00,0.0019
3278.00,0.0019
3277.00,0.0019
3276.00,0.0019
3275.00,0.0019
3274.00,0.0019
3273.00,0.0019
3272.00,0.0019
3271.00,0.0019
3270.00,0.0019
3269.00,0.0019
3268.00,0.0018
3267.00,0.0018
3266.00,0.0018
3265.00,0.0018
3264.00,0.0018
3263.00,0.0018
3262.00,0.0018
3261.00,0.0018
3260.00,0.0018
3259.00,0.0018
3258.00,0.0018
3257.00,0.0018
3256.00,0.0018
3255.00,0.0018
3254.00,0.0018
3253.00,0.0018
3252.00,0.0018
3251.00,0.0018
3250.00,0.0018
3249.00,0.0018
3248.00,0.0018
3247.00,0.0018
3246.00,0.0018
3245.00,0.0018
3244.00,0.0018
3243.00,0.0018
3242.00,0.0018
3241.00,0.0018
3240.00,0.0018
3239.00,0.0018
3238.00,0.0018
3237.00,0.0018
3236.00,0.0018
3235.00,0.0018
3234.00,0.0018
3233.00,0.0018
3232.00,0.0018
3231.00,0.0018
3230.00,0.0018
3229.00,0.0017
3228.00,0.0017
3227.00,0.0017
3226.00,0.0017
3225.00,0.0017
3224.00,0.0017
3223.00,0.0017
3222.00,0.0017
3221.00,0.0017
3220.00,0.0017
3219.00,0.0017
3218.00,0.0018
3217.00,0.0018
3216.00,0.0018
3215.00,0.0018
3214.00,0.0018
3213.00,0.0018
3212.00,0.0018
3211.00,0.0018
3210.00,0.0018
3209.00,0.0018
3208.00,0.0018
3207.00,0.0018
3206.00,0.0019
3205.00,0.0019
3204.00,0.0019
3203.00,0.0019
3202.00,0.0019
3201.00,0.0019
3200.00,0.0019
3199.00,0.0019
3198.00,0.0019
3197.00,0.0019
3196.00,0.0018
3195.00,0.0018
3194.00,0.0018
3193.00,0.0018
3192.00,0.0018
3191.00,0.0018
3190.00,0.0018
3189.00,0.0018
3188.00,0.0018
3187.00,0.0018
3186.00,0.0018
3185.00,0.0018
3184.00,0.0018
3183.00,0.0018
3182.00,0.0017
3181.00,0.0017
3180.00,0.0017
3179.00,0.0017
3178.00,0.0017
3177.00,0.0017
3176.00,0.0017
3175.00,0.0017
3174.00,0.0018
3173.00,0.0018
3172.00,0.0018
3171.00,0.0018
3170.00,0.0018
3169.00,0.0018
3168.00,0.0018
3167.00,0.0019
3166.00,0.0019
3165.00,0.0019
3164.00,0.0020
3163.00,0.0020
3162.00,0.0019
3161.00,0.0019
3160.00,0.0019
3159.00,0.0019
3158.00,0.0019
3157.00,0.0019
3156.00,0.0019
3155.00,0.0018
3154.00,0.0018
3153.00,0.0018
3152.00,0.0018
3151.00,0.0018
3150.00,0.0018
3149.00,0.0018
3148.00,0.0018
3147.00,0.0017
3146.00,0.0017
3145.00,0.0017
3144.00,0.0017
3143.00,0.0018
3142.00,0.0018
3141.00,0.0018
3140.00,0.0018
3139.00,0.0018
3138.00,0.0018
3137.00,0.0018
3136.00,0.0018
3135.00,0.0018
3134.00,0.0018
3133.00,0.0018
3132.00,0.0018
3131.00,0.0018
3130.00,0.0018
3129.00,0.0018
3128.00,0.0019
3127.00,0.0019
3126.00,0.0019
3125.00,0.0019
3124.00,0.0020
3123.00,0.0020
3122.00,0.0020
3121.00,0.0020
3120.00,0.0020
3119.00,0.0021
3118.00,0.0021
3117.00,0.0022
3116.00,0.0023
3115.00,0.0024
3114.00,0.0025
3113.00,0.0026
3112.00,0.0028
3111.00,0.0030
3110.00,0.0032
3109.00,0.0034
3108.00,0.0036
3107.00,0.0038
3106.00,0.0040
3105.00,0.0042
3104.00,0.0043
3103.00,0.0043
3102.00,0.0043
3101.00,0.0043
3100.00,0.0043
3099.00,0.0042
3098.00,0.0042
3097.00,0.0041
3096.00,0.0041
3095.00,0.0042
3094.00,0.0043
3093.00,0.0045
3092.00,0.0048
3091.00,0.0052
3090.00,0.0057
3089.00,0.0064
3088.00,0.0071
3087.00,0.0078
3086.00,0.0086
3085.00,0.0093
3084.00,0.0098
3083.00,0.0101
3082.00,0.0102
3081.00,0.0101
3080.00,0.0097
3079.00,0.0093
3078.00,0.0088
3077.00,0.0083
3076.00,0.0079
3075.00,0.0077
3074.00,0.0075
3073.00,0.0075
3072.00,0.0076
3071.00,0.0078
3070.00,0.0081
3069.00,0.0085
3068.00,0.0090
3067.00,0.0097
3066.00,0.0104
3065.00,0.0112
3064.00,0.0120
3063.00,0.0128
3062.00,0.0134
3061.00,0.0138
3060.00,0.0140
3059.00,0.0139
3058.00,0.0136
3057.00,0.0131
3056.00,0.0124
3055.00,0.0116
3054.00,0.0108
3053.00,0.0100
3052.00,0.0094
3051.00,0.0088
3050.00,0.0084
3049.00,0.0080
3048.00,0.0077
3047.00,0.0074
3046.00,0.0073
3045.00,0.0072
3044.00,0.0073
3043.00,0.0074
3042.00,0.0077
3041.00,0.0080
3040.00,0.0085
3039.00,0.0090
3038.00,0.0096
3037.00,0.0104
3036.00,0.0114
3035.00,0.0125
3034.00,0.0138
3033.00,0.0154
3032.00,0.0171
3031.00,0.0190
3030.00,0.0210
3029.00,0.0229
3028.00,0.0245
3027.00,0.0259
3026.00,0.0267
3025.00,0.0269
3024.00,0.0263
3023.00,0.0250
3022.00,0.0232
3021.00,0.0210
3020.00,0.0187
3019.00,0.0165
3018.00,0.0144
3017.00,0.0126
3016.00,0.0111
3015.00,0.0098
3014.00,0.0087
3013.00,0.0079
3012.00,0.0072
3011.00,0.0067
3010.00,0.0063
3009.00,0.0060
3008.00,0.0059
3007.00,0.0059
3006.00,0.0059
3005.00,0.0059
3004.00,0.0060
3003.00,0.0060
3002.00,0.0060
3001.00,0.0058
3000.00,0.0055
2999.00,0.0050
2998.00,0.0045
2997.00,0.0039
2996.00,0.0033
2995.00,0.0027
2994.00,0.0022
2993.00,0.0019
2992.00,0.0016
2991.00,0.0013
2990.00,0.0012
2989.00,0.0011
2988.00,0.0009
2987.00,0.0008
2986.00,0.0005
2985.00,0.0001
2984.00,-0.0003
2983.00,-0.0008
2982.00,-0.0012
2981.00,-0.0013
2980.00,-0.0011
2979.00,-0.0008
2978.00,-0.0005
2977.00,-0.0001
2976.00,0.0001
2975.00,0.0003
2974.00,0.0004
2973.00,0.0004
2972.00,0.0004
2971.00,0.0006
2970.00,0.0008
2969.00,0.0011
2968.00,0.0015
2967.00,0.0018
2966.00,0.0020
2965.00,0.0023
2964.00,0.0026
2963.00,0.0029
2962.00,0.0031
2961.00,0.0034
2960.00,0.0037
2959.00,0.0040
2958.00,0.0043
2957.00,0.0046
2956.00,0.0049
2955.00,0.0053
2954.00,0.0057
2953.00,0.0062
2952.00,0.0067
2951.00,0.0072
2950.00,0.0077
2949.00,0.0083
2948.00,0.0088
2947.00,0.0095
2946.00,0.0102
2945.00,0.0110
2944.00,0.0118
2943.00,0.0126
2942.00,0.0134
2941.00,0.0143
2940.00,0.0152
2939.00,0.0162
2938.00,0.0173
2937.00,0.0184
2936.00,0.0195
2935.00,0.0207
2934.00,0.0218
2933.00,0.0229
2932.00,0.0241
2931.00,0.0252
2930.00,0.0263
2929.00,0.0273
2928.00,0.0283
2927.00,0.0291
2926.00,0.0298
2925.00,0.0304
2924.00,0.0308
2923.00,0.0311
2922.00,0.0312
2921.00,0.0312
2920.00,0.0311
2919.00,0.0308
2918.00,0.0304
2917.00,0.0300
2916.00,0.0294
2915.00,0.0288
2914.00,0.0282
2913.00,0.0274
2912.00,0.0267
2911.00,0.0259
2910.00,0.0251
2909.00,0.0242
2908.00,0.0234
2907.00,0.0225
2906.00,0.0217
2905.00,0.0209
2904.00,0.0200
2903.00,0.0192
2902.00,0.0184
2901.00,0.0175
2900.00,0.0167
2899.00,0.0159
2898.00,0.0152
2897.00,0.0145
2896.00,0.0138
2895.00,0.0132
2894.00,0.0127
2893.00,0.0122
2892.00,0.0117
2891.00,0.0113
2890.00,0.0110
2889.00,0.0106
2888.00,0.0103
2887.00,0.0100
2886.00,0.0097
2885.00,0.0095
2884.00,0.0092
2883.00,0.0090
2882.00,0.0088
2881.00,0.0086
2880.00,0.0085
2879.00,0.0083
2878.00,0.0082
2877.00,0.0080
2876.00,0.0079
2875.00,0.0078
2874.00,0.0076
2873.00,0.0075
2872.00,0.0074
2871.00,0.0073
2870.00,0.0073
2869.00,0.0074
2868.00,0.0074
2867.00,0.0076
2866.00,0.0077
2865.00,0.0079
2864.00,0.0082
2863.00,0.0085
2862.00,0.0089
2861.00,0.0093
2860.00,0.0098
2859.00,0.0103
2858.00,0.0109
2857.00,0.0114
2856.00,0.0120
2855.00,0.0125
2854.00,0.0129
2853.00,0.0133
2852.00,0.0137
2851.00,0.0139
2850.00,0.0141
2849.00,0.0141
2848.00,0.0140
2847.00,0.0138
2846.00,0.0135
2845.00,0.0130
2844.00,0.0124
2843.00,0.0117
2842.00,0.0109
2841.00,0.0101
2840.00,0.0093
2839.00,0.0085
2838.00,0.0077
2837.00,0.0070
2836.00,0.0064
2835.00,0.0059
2834.00,0.0054
2833.00,0.0050
2832.00,0.0047
2831.00,0.0045
2830.00,0.0043
2829.00,0.0041
2828.00,0.0040
2827.00,0.0039
2826.00,0.0037
2825.00,0.0037
2824.00,0.0036
2823.00,0.0035
2822.00,0.0035
2821.00,0.0034
2820.00,0.0034
2819.00,0.0034
2818.00,0.0033
2817.00,0.0033
2816.00,0.0033
2815.00,0.0033
2814.00,0.0032
2813.00,0.0032
2812.00,0.0032
2811.00,0.0032
2810.00,0.0032
2809.00,0.0032
2808.00,0.0032
2807.00,0.0031
2806.00,0.0031
2805.00,0.0031
2804.00,0.0030
2803.00,0.0030
2802.00,0.0030
2801.00,0.0029
2800.00,0.0029
2799.00,0.0029
2798.00,0.0028
2797.00,0.0028
2796.00,0.0028
2795.00,0.0028
2794.00,0.0028
2793.00,0.0028
2792.00,0.0028
2791.00,0.0028
2790.00,0.0027
2789.00,0.0027
2788.00,0.0027
2787.00,0.0027
2786.00,0.0027
2785.00,0.0027
2784.00,0.0027
2783.00,0.0027
2782.00,0.0027
2781.00,0.0027
2780.00,0.0026
2779.00,0.0026
2778.00,0.0026
2777.00,0.0026
2776.00,0.0026
2775.00,0.0026
2774.00,0.0026
2773.00,0.0026
2772.00,0.0026
2771.00,0.0025
2770.00,0.0025
2769.00,0.0025
2768.00,0.0025
2767.00,0.0025
2766.00,0.0025
2765.00,0.0025
2764.00,0.0024
2763.00,0.0024
2762.00,0.0024
2761.00,0.0025
2760.00,0.0025
2759.00,0.0024
2758.00,0.0024
2757.00,0.0024
2756.00,0.0024
2755.00,0.0024
2754.00,0.0024
2753.00,0.0024
2752.00,0.0024
2751.00,0.0024
2750.00,0.0024
2749.00,0.0024
2748.00,0.0024
2747.00,0.0024
2746.00,0.0024
2745.00,0.0024
2744.00,0.0024
2743.00,0.0024
2742.00,0.0024
2741.00,0.0024
2740.00,0.0024
2739.00,0.0024
2738.00,0.0024
2737.00,0.0024
2736.00,0.0024
2735.00,0.0024
2734.00,0.0024
2733.00,0.0024
2732.00,0.0024
2731.00,0.0024
2730.00,0.0024
2729.00,0.0024
2728.00,0.0024
2727.00,0.0024
2726.00,0.0024
2725.00,0.0024
2724.00,0.0024
2723.00,0.0024
2722.00,0.0024
2721.00,0.0025
2720.00,0.0025
2719.00,0.0025
2718.00,0.0025
2717.00,0.0024
2716.00,0.0025
2715.00,0.0025
2714.00,0.0025
2713.00,0.0025
2712.00,0.0025
2711.00,0.0025
2710.00,0.0025
2709.00,0.0024
2708.00,0.0024
2707.00,0.0024
2706.00,0.0024
2705.00,0.0024
2704.00,0.0024
2703.00,0.0024
2702.00,0.0025
2701.00,0.0024
2700.00,0.0024
2699.00,0.0024
2698.00,0.0024
2697.00,0.0024
2696.00,0.0024
2695.00,0.0024
2694.00,0.0024
2693.00,0.0024
2692.00,0.0024
2691.00,0.0024
2690.00,0.0024
2689.00,0.0024
2688.00,0.0024
2687.00,0.0024
2686.00,0.0024
2685.00,0.0024
2684.00,0.0024
2683.00,0.0024
2682.00,0.0024
2681.00,0.0024
2680.00,0.0024
2679.00,0.0024
2678.00,0.0024
2677.00,0.0024
2676.00,0.0024
2675.00,0.0024
2674.00,0.0024
2673.00,0.0024
2672.00,0.0024
2671.00,0.0024
2670.00,0.0024
2669.00,0.0024
2668.00,0.0024
2667.00,0.0024
2666.00,0.0025
2665.00,0.0025
2664.00,0.0025
2663.00,0.0026
2662.00,0.0026
2661.00,0.0027
2660.00,0.0027
2659.00,0.0027
2658.00,0.0028
2657.00,0.0028
2656.00,0.0028
2655.00,0.0028
2654.00,0.0028
2653.00,0.0028
2652.00,0.0028
2651.00,0.0028
2650.00,0.0029
2649.00,0.0029
2648.00,0.0028
2647.00,0.0028
2646.00,0.0028
2645.00,0.0028
2644.00,0.0029
2643.00,0.0028
2642.00,0.0028
2641.00,0.0028
2640.00,0.0028
2639.00,0.0029
2638.00,0.0029
2637.00,0.0029
2636.00,0.0029
2635.00,0.0030
2634.00,0.0029
2633.00,0.0029
2632.00,0.0029
2631.00,0.0029
2630.00,0.0029
2629.00,0.0029
2628.00,0.0029
2627.00,0.0028
2626.00,0.0028
2625.00,0.0028
2624.00,0.0027
2623.00,0.0027
2622.00,0.0027
2621.00,0.0027
2620.00,0.0026
2619.00,0.0026
2618.00,0.0026
2617.00,0.0026
2616.00,0.0026
2615.00,0.0026
2614.00,0.0026
2613.00,0.0026
2612.00,0.0026
2611.00,0.0026
2610.00,0.0026
2609.00,0.0026
2608.00,0.0026
2607.00,0.0027
2606.00,0.0027
2605.00,0.0027
2604.00,0.0027
2603.00,0.0027
2602.00,0.0026
2601.00,0.0026
2600.00,0.0026
2599.00,0.0026
2598.00,0.0026
2597.00,0.0025
2596.00,0.0025
2595.00,0.0024
2594.00,0.0024
2593.00,0.0024
2592.00,0.0024
2591.00,0.0024
2590.00,0.0024
2589.00,0.0024
2588.00,0.0024
2587.00,0.0024
2586.00,0.0024
2585.00,0.0024
2584.00,0.0024
2583.00,0.0024
2582.00,0.0024
2581.00,0.0024
2580.00,0.0024
2579.00,0.0024
2578.00,0.0024
2577.00,0.0024
2576.00,0.0023
2575.00,0.0023
2574.00,0.0022
2573.00,0.0022
2572.00,0.0022
2571.00,0.0022
2570.00,0.0022
2569.00,0.0022
2568.00,0.0022
2567.00,0.0022
2566.00,0.0022
2565.00,0.0022
2564.00,0.0022
2563.00,0.0022
2562.00,0.0022
2561.00,0.0022
2560.00,0.0022
2559.00,0.0022
2558.00,0.0022
2557.00,0.0021
2556.00,0.0021
2555.00,0.0021
2554.00,0.0021
2553.00,0.0021
2552.00,0.0021
2551.00,0.0021
2550.00,0.0021
2549.00,0.0021
2548.00,0.0021
2547.00,0.0021
2546.00,0.0021
2545.00,0.0021
2544.00,0.0021
2543.00,0.0021
2542.00,0.0021
2541.00,0.0021
2540.00,0.0021
2539.00,0.0021
2538.00,0.0021
2537.00,0.0021
2536.00,0.0021
2535.00,0.0021
2534.00,0.0021
2533.00,0.0020
2532.00,0.0020
2531.00,0.0020
2530.00,0.0020
2529.00,0.0020
2528.00,0.0020
2527.00,0.0020
2526.00,0.0020
2525.00,0.0020
2524.00,0.0020
2523.00,0.0020
2522.00,0.0020
2521.00,0.0020
2520.00,0.0020
2519.00,0.0020
2518.00,0.0020
2517.00,0.0020
2516.00,0.0020
2515.00,0.0020
2514.00,0.0020
2513.00,0.0020
2512.00,0.0020
2511.00,0.0019
2510.00,0.0019
2509.00,0.0019
2508.00,0.0019
2507.00,0.0020
2506.00,0.0020
2505.00,0.0020
2504.00,0.0020
2503.00,0.0019
2502.00,0.0019
2501.00,0.0019
2500.00,0.0019
2499.00,0.0019
2498.00,0.0019
2497.00,0.0019
2496.00,0.0019
2495.00,0.0019
2494.00,0.0019
2493.00,0.0019
2492.00,0.0019
2491.00,0.0019
2490.00,0.0019
2489.00,0.0019
2488.00,0.0019
2487.00,0.0019
2486.00,0.0019
2485.00,0.0019
2484.00,0.0018
2483.00,0.0018
2482.00,0.0018
2481.00,0.0018
2480.00,0.0018
2479.00,0.0018
2478.00,0.0018
2477.00,0.0019
2476.00,0.0018
2475.00,0.0018
2474.00,0.0018
2473.00,0.0018
2472.00,0.0018
2471.00,0.0018
2470.00,0.0017
2469.00,0.0017
2468.00,0.0018
2467.00,0.0018
2466.00,0.0018
2465.00,0.0018
2464.00,0.0018
2463.00,0.0018
2462.00,0.0018
2461.00,0.0018
2460.00,0.0018
2459.00,0.0018
2458.00,0.0019
2457.00,0.0019
2456.00,0.0020
2455.00,0.0020
2454.00,0.0020
2453.00,0.0019
2452.00,0.0019
2451.00,0.0019
2450.00,0.0019
2449.00,0.0018
2448.00,0.0018
2447.00,0.0018
2446.00,0.0018
2445.00,0.0018
2444.00,0.0018
2443.00,0.0018
2442.00,0.0018
2441.00,0.0017
2440.00,0.0017
2439.00,0.0017
2438.00,0.0017
2437.00,0.0017
2436.00,0.0017
2435.00,0.0016
2434.00,0.0016
2433.00,0.0016
2432.00,0.0016
2431.00,0.0016
2430.00,0.0015
2429.00,0.0016
2428.00,0.0016
2427.00,0.0016
2426.00,0.0016
2425.00,0.0016
2424.00,0.0016
2423.00,0.0016
2422.00,0.0015
2421.00,0.0015
2420.00,0.0015
2419.00,0.0015
2418.00,0.0015
2417.00,0.0015
2416.00,0.0015
2415.00,0.0015
2414.00,0.0015
2413.00,0.0015
2412.00,0.0015
2411.00,0.0015
2410.00,0.0015
2409.00,0.0015
2408.00,0.0015
2407.00,0.0014
2406.00,0.0014
2405.00,0.0014
2404.00,0.0014
2403.00,0.0014
2402.00,0.0014
2401.00,0.0014
2400.00,0.0014
2399.00,0.0014
2398.00,0.0014
2397.00,0.0014
2396.00,0.0014
2395.00,0.0014
2394.00,0.0014
2393.00,0.0014
2392.00,0.0014
2391.00,0.0014
2390.00,0.0014
2389.00,0.0014
2388.00,0.0014
2387.00,0.0014
2386.00,0.0013
2385.00,0.0013
2384.00,0.0013
2383.00,0.0013
2382.00,0.0013
2381.00,0.0014
2380.00,0.0014
2379.00,0.0014
2378.00,0.0014
2377.00,0.0014
2376.00,0.0014
2375.00,0.0014
2374.00,0.0014
2373.00,0.0014
2372.00,0.0014
2371.00,0.0014
2370.00,0.0013
2369.00,0.0013
2368.00,0.0013
2367.00,0.0013
2366.00,0.0013
2365.00,0.0014
2364.00,0.0015
2363.00,0.0015
2362.00,0.0016
2361.00,0.0016
2360.00,0.0017
2359.00,0.0016
2358.00,0.0016
2357.00,0.0017
2356.00,0.0017
2355.00,0.0017
2354.00,0.0017
2353.00,0.0017
2352.00,0.0017
2351.00,0.0017
2350.00,0.0018
2349.00,0.0018
2348.00,0.0019
2347.00,0.0020
2346.00,0.0020
2345.00,0.0020
2344.00,0.0020
2343.00,0.0020
2342.00,0.0020
2341.00,0.0021
2340.00,0.0022
2339.00,0.0022
2338.00,0.0022
2337.00,0.0022
2336.00,0.0022
2335.00,0.0022
2334.00,0.0022
2333.00,0.0022
2332.00,0.0021
2331.00,0.0021
2330.00,0.0021
2329.00,0.0022
2328.00,0.0025
2327.00,0.0029
2326.00,0.0032
2325.00,0.0034
2324.00,0.0033
2323.00,0.0032
2322.00,0.0030
2321.00,0.0028
2320.00,0.0026
2319.00,0.0026
2318.00,0.0025
2317.00,0.0025
2316.00,0.0026
2315.00,0.0026
2314.00,0.0026
2313.00,0.0026
2312.00,0.0026
2311.00,0.0025
2310.00,0.0025
2309.00,0.0025
2308.00,0.0025
2307.00,0.0025
2306.00,0.0024
2305.00,0.0023
2304.00,0.0023
2303.00,0.0022
2302.00,0.0022
2301.00,0.0022
2300.00,0.0022
2299.00,0.0023
2298.00,0.0024
2297.00,0.0024
2296.00,0.0025
2295.00,0.0026
2294.00,0.0026
2293.00,0.0027
2292.00,0.0028
2291.00,0.0028
2290.00,0.0029
2289.00,0.0029
2288.00,0.0029
2287.00,0.0029
2286.00,0.0029
2285.00,0.0028
2284.00,0.0026
2283.00,0.0025
2282.00,0.0025
2281.00,0.0024
2280.00,0.0024
2279.00,0.0024
2278.00,0.0024
2277.00,0.0023
2276.00,0.0023
2275.00,0.0022
2274.00,0.0022
2273.00,0.0023
2272.00,0.0022
2271.00,0.0022
2270.00,0.0021
2269.00,0.0020
2268.00,0.0020
2267.00,0.0020
2266.00,0.0020
2265.00,0.0019
2264.00,0.0019
2263.00,0.0019
2262.00,0.0020
2261.00,0.0021
2260.00,0.0021
2259.00,0.0021
2258.00,0.0020
2257.00,0.0019
2256.00,0.0019
2255.00,0.0019
2254.00,0.0019
2253.00,0.0019
2252.00,0.0020
2251.00,0.0020
2250.00,0.0019
2249.00,0.0019
2248.00,0.0019
2247.00,0.0019
2246.00,0.0020
2245.00,0.0020
2244.00,0.0020
2243.00,0.0020
2242.00,0.0020
2241.00,0.0020
2240.00,0.0019
2239.00,0.0019
2238.00,0.0019
2237.00,0.0019
2236.00,0.0019
2235.00,0.0019
2234.00,0.0018
2233.00,0.0018
2232.00,0.0018
2231.00,0.0017
2230.00,0.0016
2229.00,0.0016
2228.00,0.0016
2227.00,0.0016
2226.00,0.0016
2225.00,0.0016
2224.00,0.0017
2223.00,0.0017
2222.00,0.0017
2221.00,0.0017
2220.00,0.0017
2219.00,0.0017
2218.00,0.0017
2217.00,0.0017
2216.00,0.0017
2215.00,0.0017
2214.00,0.0018
2213.00,0.0019
2212.00,0.0019
2211.00,0.0019
2210.00,0.0018
2209.00,0.0017
2208.00,0.0016
2207.00,0.0015
2206.00,0.0014
2205.00,0.0014
2204.00,0.0015
2203.00,0.0015
2202.00,0.0016
2201.00,0.0017
2200.00,0.0017
2199.00,0.0017
2198.00,0.0017
2197.00,0.0017
2196.00,0.0017
2195.00,0.0017
2194.00,0.0017
2193.00,0.0018
2192.00,0.0018
2191.00,0.0019
2190.00,0.0019
2189.00,0.0019
2188.00,0.0020
2187.00,0.0020
2186.00,0.0020
2185.00,0.0018
2184.00,0.0015
2183.00,0.0012
2182.00,0.0011
2181.00,0.0011
2180.00,0.0012
2179.00,0.0013
2178.00,0.0013
2177.00,0.0013
2176.00,0.0012
2175.00,0.0011
2174.00,0.0011
2173.00,0.0013
2172.00,0.0016
2171.00,0.0020
2170.00,0.0023
2169.00,0.0026
2168.00,0.0026
2167.00,0.0026
2166.00,0.0025
2165.00,0.0026
2164.00,0.0027
2163.00,0.0026
2162.00,0.0021
2161.00,0.0010
2160.00,-0.0004
2159.00,-0.0016
2158.00,-0.0020
2157.00,-0.0020
2156.00,-0.0017
2155.00,-0.0014
2154.00,-0.0011
2153.00,-0.0008
2152.00,-0.0006
2151.00,-0.0005
2150.00,-0.0005
2149.00,-0.0005
2148.00,-0.0005
2147.00,-0.0005
2146.00,-0.0006
2145.00,-0.0006
2144.00,-0.0007
2143.00,-0.0006
2142.00,-0.0006
2141.00,-0.0005
2140.00,-0.0004
2139.00,-0.0004
2138.00,-0.0004
2137.00,-0.0005
2136.00,-0.0007
2135.00,-0.0008
2134.00,-0.0009
2133.00,-0.0009
2132.00,-0.0008
2131.00,-0.0006
2130.00,-0.0005
2129.00,-0.0003
2128.00,-0.0002
2127.00,0.0000
2126.00,0.0002
2125.00,0.0004
2124.00,0.0004
2123.00,0.0005
2122.00,0.0005
2121.00,0.0006
2120.00,0.0007
2119.00,0.0008
2118.00,0.0009
2117.00,0.0011
2116.00,0.0012
2115.00,0.0013
2114.00,0.0013
2113.00,0.0013
2112.00,0.0013
2111.00,0.0013
2110.00,0.0012
2109.00,0.0012
2108.00,0.0012
2107.00,0.0012
2106.00,0.0012
2105.00,0.0012
2104.00,0.0011
2103.00,0.0012
2102.00,0.0012
2101.00,0.0012
2100.00,0.0012
2099.00,0.0012
2098.00,0.0011
2097.00,0.0009
2096.00,0.0007
2095.00,0.0007
2094.00,0.0007
2093.00,0.0008
2092.00,0.0008
2091.00,0.0009
2090.00,0.0010
2089.00,0.0011
2088.00,0.0012
2087.00,0.0013
2086.00,0.0013
2085.00,0.0013
2084.00,0.0013
2083.00,0.0014
2082.00,0.0014
2081.00,0.0015
2080.00,0.0015
2079.00,0.0015
2078.00,0.0015
2077.00,0.0014
2076.00,0.0014
2075.00,0.0014
2074.00,0.0014
2073.00,0.0014
2072.00,0.0013
2071.00,0.0012
2070.00,0.0012
2069.00,0.0012
2068.00,0.0011
2067.00,0.0011
2066.00,0.0011
2065.00,0.0010
2064.00,0.0010
2063.00,0.0010
2062.00,0.0010
2061.00,0.0010
2060.00,0.0010
2059.00,0.0010
2058.00,0.0010
2057.00,0.0009
2056.00,0.0008
2055.00,0.0008
2054.00,0.0011
2053.00,0.0015
2052.00,0.0019
2051.00,0.0020
2050.00,0.0017
2049.00,0.0014
2048.00,0.0012
2047.00,0.0011
2046.00,0.0011
2045.00,0.0011
2044.00,0.0011
2043.00,0.0011
2042.00,0.0010
2041.00,0.0010
2040.00,0.0010
2039.00,0.0010
2038.00,0.0010
2037.00,0.0010
2036.00,0.0009
2035.00,0.0008
2034.00,0.0007
2033.00,0.0007
2032.00,0.0006
2031.00,0.0006
2030.00,0.0006
2029.00,0.0006
2028.00,0.0006
2027.00,0.0005
2026.00,0.0004
2025.00,0.0003
2024.00,0.0003
2023.00,0.0004
2022.00,0.0005
2021.00,0.0005
2020.00,0.0005
2019.00,0.0004
2018.00,0.0003
2017.00,0.0003
2016.00,0.0004
2015.00,0.0005
2014.00,0.0006
2013.00,0.0006
2012.00,0.0007
2011.00,0.0007
2010.00,0.0006
2009.00,0.0005
2008.00,0.0003
2007.00,0.0001
2006.00,-0.0001
2005.00,-0.0002
2004.00,-0.0002
2003.00,-0.0000
2002.00,0.0001
2001.00,0.0003
2000.00,0.0005
1999.00,0.0007
1998.00,0.0008
1997.00,0.0009
1996.00,0.0010
1995.00,0.0011
1994.00,0.0012
1993.00,0.0013
1992.00,0.0015
1991.00,0.0016
1990.00,0.0017
1989.00,0.0017
1988.00,0.0018
1987.00,0.0019
1986.00,0.0020
1985.00,0.0021
1984.00,0.0023
1983.00,0.0026
1982.00,0.0028
1981.00,0.0028
1980.00,0.0026
1979.00,0.0020
1978.00,0.0013
1977.00,0.0008
1976.00,0.0006
1975.00,0.0006
1974.00,0.0007
1973.00,0.0008
1972.00,0.0010
1971.00,0.0011
1970.00,0.0011
1969.00,0.0011
1968.00,0.0012
1967.00,0.0013
1966.00,0.0014
1965.00,0.0016
1964.00,0.0018
1963.00,0.0020
1962.00,0.0021
1961.00,0.0021
1960.00,0.0020
1959.00,0.0020
1958.00,0.0020
1957.00,0.0022
1956.00,0.0023
1955.00,0.0025
1954.00,0.0027
1953.00,0.0028
1952.00,0.0030
1951.00,0.0032
1950.00,0.0033
1949.00,0.0034
1948.00,0.0035
1947.00,0.0037
1946.00,0.0038
1945.00,0.0039
1944.00,0.0040
1943.00,0.0041
1942.00,0.0041
1941.00,0.0040
1940.00,0.0039
1939.00,0.0038
1938.00,0.0036
1937.00,0.0035
1936.00,0.0032
1935.00,0.0030
1934.00,0.0027
1933.00,0.0025
1932.00,0.0024
1931.00,0.0023
1930.00,0.0021
1929.00,0.0020
1928.00,0.0018
1927.00,0.0017
1926.00,0.0016
1925.00,0.0015
1924.00,0.0015
1923.00,0.0015
1922.00,0.0015
1921.00,0.0014
1920.00,0.0014
1919.00,0.0014
1918.00,0.0013
1917.00,0.0013
1916.00,0.0013
1915.00,0.0013
1914.00,0.0013
1913.00,0.0013
1912.00,0.0013
1911.00,0.0013
1910.00,0.0013
1909.00,0.0012
1908.00,0.0012
1907.00,0.0012
1906.00,0.0012
1905.00,0.0012
1904.00,0.0013
1903.00,0.0014
1902.00,0.0014
1901.00,0.0015
1900.00,0.0016
1899.00,0.0016
1898.00,0.0017
1897.00,0.0018
1896.00,0.0019
1895.00,0.0019
1894.00,0.0020
1893.00,0.0022
1892.00,0.0023
1891.00,0.0025
1890.00,0.0026
1889.00,0.0028
1888.00,0.0030
1887.00,0.0031
1886.00,0.0032
1885.00,0.0033
1884.00,0.0033
1883.00,0.0034
1882.00,0.0034
1881.00,0.0035
1880.00,0.0036
1879.00,0.0037
1878.00,0.0037
1877.00,0.0038
1876.00,0.0039
1875.00,0.0039
1874.00,0.0040
1873.00,0.0040
1872.00,0.0040
1871.00,0.0040
1870.00,0.0040
1869.00,0.0040
1868.00,0.0040
1867.00,0.0040
1866.00,0.0039
1865.00,0.0038
1864.00,0.0037
1863.00,0.0036
1862.00,0.0034
1861.00,0.0031
1860.00,0.0029
1859.00,0.0027
1858.00,0.0026
1857.00,0.0024
1856.00,0.0023
1855.00,0.0022
1854.00,0.0020
1853.00,0.0019
1852.00,0.0018
1851.00,0.0017
1850.00,0.0017
1849.00,0.0016
1848.00,0.0016
1847.00,0.0016
1846.00,0.0015
1845.00,0.0015
1844.00,0.0015
1843.00,0.0015
1842.00,0.0015
1841.00,0.0015
1840.00,0.0014
1839.00,0.0014
1838.00,0.0014
1837.00,0.0015
1836.00,0.0016
1835.00,0.0016
1834.00,0.0017
1833.00,0.0017
1832.00,0.0018
1831.00,0.0019
1830.00,0.0019
1829.00,0.0020
1828.00,0.0021
1827.00,0.0021
1826.00,0.0022
1825.00,0.0023
1824.00,0.0024
1823.00,0.0026
1822.00,0.0027
1821.00,0.0027
1820.00,0.0028
1819.00,0.0028
1818.00,0.0028
1817.00,0.0029
1816.00,0.0030
1815.00,0.0032
1814.00,0.0034
1813.00,0.0035
1812.00,0.0037
1811.00,0.0039
1810.00,0.0040
1809.00,0.0042
1808.00,0.0043
1807.00,0.0045
1806.00,0.0046
1805.00,0.0047
1804.00,0.0047
1803.00,0.0048
1802.00,0.0048
1801.00,0.0047
1800.00,0.0047
1799.00,0.0046
1798.00,0.0045
1797.00,0.0043
1796.00,0.0042
1795.00,0.0040
1794.00,0.0038
1793.00,0.0036
1792.00,0.0034
1791.00,0.0032
1790.00,0.0031
1789.00,0.0029
1788.00,0.0028
1787.00,0.0027
1786.00,0.0026
1785.00,0.0026
1784.00,0.0025
1783.00,0.0025
1782.00,0.0025
1781.00,0.0025
1780.00,0.0026
1779.00,0.0026
1778.00,0.0026
1777.00,0.0026
1776.00,0.0026
1775.00,0.0027
1774.00,0.0027
1773.00,0.0026
1772.00,0.0026
1771.00,0.0026
1770.00,0.0027
1769.00,0.0027
1768.00,0.0027
1767.00,0.0027
1766.00,0.0028
1765.00,0.0028
1764.00,0.0029
1763.00,0.0030
1762.00,0.0031
1761.00,0.0032
1760.00,0.0033
1759.00,0.0035
1758.00,0.0036
1757.00,0.0038
1756.00,0.0039
1755.00,0.0041
1754.00,0.0042
1753.00,0.0044
1752.00,0.0046
1751.00,0.0048
1750.00,0.0049
1749.00,0.0050
1748.00,0.0051
1747.00,0.0052
1746.00,0.0052
1745.00,0.0053
1744.00,0.0053
1743.00,0.0054
1742.00,0.0054
1741.00,0.0053
1740.00,0.0053
1739.00,0.0053
1738.00,0.0053
1737.00,0.0053
1736.00,0.0053
1735.00,0.0052
1734.00,0.0051
1733.00,0.0049
1732.00,0.0048
1731.00,0.0047
1730.00,0.0046
1729.00,0.0045
1728.00,0.0044
1727.00,0.0044
1726.00,0.0043
1725.00,0.0042
1724.00,0.0042
1723.00,0.0041
1722.00,0.0041
1721.00,0.0040
1720.00,0.0040
1719.00,0.0040
1718.00,0.0040
1717.00,0.0039
1716.00,0.0039
1715.00,0.0038
1714.00,0.0037
1713.00,0.0036
1712.00,0.0036
1711.00,0.0036
1710.00,0.0035
1709.00,0.0035
1708.00,0.0035
1707.00,0.0034
1706.00,0.0034
1705.00,0.0034
1704.00,0.0034
1703.00,0.0034
1702.00,0.0034
1701.00,0.0033
1700.00,0.0033
1699.00,0.0033
1698.00,0.0033
1697.00,0.0033
1696.00,0.0033
1695.00,0.0033
1694.00,0.0033
1693.00,0.0033
1692.00,0.0033
1691.00,0.0033
1690.00,0.0034
1689.00,0.0034
1688.00,0.0035
1687.00,0.0036
1686.00,0.0036
1685.00,0.0036
1684.00,0.0036
1683.00,0.0037
1682.00,0.0037
1681.00,0.0037
1680.00,0.0038
1679.00,0.0038
1678.00,0.0039
1677.00,0.0039
1676.00,0.0039
1675.00,0.0039
1674.00,0.0039
1673.00,0.0039
1672.00,0.0040
1671.00,0.0040
1670.00,0.0040
1669.00,0.0041
1668.00,0.0041
1667.00,0.0041
1666.00,0.0040
1665.00,0.0040
1664.00,0.0040
1663.00,0.0039
1662.00,0.0039
1661.00,0.0039
1660.00,0.0038
1659.00,0.0037
1658.00,0.0037
1657.00,0.0036
1656.00,0.0036
1655.00,0.0035
1654.00,0.0035
1653.00,0.0034
1652.00,0.0034
1651.00,0.0033
1650.00,0.0032
1649.00,0.0032
1648.00,0.0032
1647.00,0.0032
1646.00,0.0032
1645.00,0.0031
1644.00,0.0031
1643.00,0.0031
1642.00,0.0030
1641.00,0.0030
1640.00,0.0030
1639.00,0.0030
1638.00,0.0030
1637.00,0.0030
1636.00,0.0030
1635.00,0.0030
1634.00,0.0031
1633.00,0.0031
1632.00,0.0031
1631.00,0.0032
1630.00,0.0032
1629.00,0.0032
1628.00,0.0032
1627.00,0.0033
1626.00,0.0033
1625.00,0.0034
1624.00,0.0034
1623.00,0.0035
1622.00,0.0036
1621.00,0.0037
1620.00,0.0037
1619.00,0.0038
1618.00,0.0040
1617.00,0.0042
1616.00,0.0044
1615.00,0.0046
1614.00,0.0049
1613.00,0.0053
1612.00,0.0058
1611.00,0.0066
1610.00,0.0076
1609.00,0.0090
1608.00,0.0109
1607.00,0.0134
1606.00,0.0162
1605.00,0.0193
1604.00,0.0225
1603.00,0.0253
1602.00,0.0272
1601.00,0.0278
1600.00,0.0270
1599.00,0.0250
1598.00,0.0223
1597.00,0.0193
1596.00,0.0166
1595.00,0.0143
1594.00,0.0125
1593.00,0.0111
1592.00,0.0101
1591.00,0.0092
1590.00,0.0087
1589.00,0.0084
1588.00,0.0085
1587.00,0.0090
1586.00,0.0099
1585.00,0.0109
1584.00,0.0117
1583.00,0.0119
1582.00,0.0114
1581.00,0.0103
1580.00,0.0090
1579.00,0.0078
1578.00,0.0068
1577.00,0.0060
1576.00,0.0054
1575.00,0.0049
1574.00,0.0045
1573.00,0.0043
1572.00,0.0041
1571.00,0.0039
1570.00,0.0037
1569.00,0.0036
1568.00,0.0035
1567.00,0.0035
1566.00,0.0034
1565.00,0.0034
1564.00,0.0033
1563.00,0.0033
1562.00,0.0033
1561.00,0.0033
1560.00,0.0033
1559.00,0.0034
1558.00,0.0034
1557.00,0.0035
1556.00,0.0036
1555.00,0.0037
1554.00,0.0038
1553.00,0.0039
1552.00,0.0040
1551.00,0.0041
1550.00,0.0043
1549.00,0.0044
1548.00,0.0045
1547.00,0.0046
1546.00,0.0047
1545.00,0.0049
1544.00,0.0049
1543.00,0.0049
1542.00,0.0049
1541.00,0.0049
1540.00,0.0049
1539.00,0.0048
1538.00,0.0048
1537.00,0.0047
1536.00,0.0046
1535.00,0.0045
1534.00,0.0044
1533.00,0.0042
1532.00,0.0041
1531.00,0.0040
1530.00,0.0039
1529.00,0.0038
1528.00,0.0038
1527.00,0.0037
1526.00,0.0037
1525.00,0.0036
1524.00,0.0036
1523.00,0.0035
1522.00,0.0035
1521.00,0.0035
1520.00,0.0035
1519.00,0.0036
1518.00,0.0036
1517.00,0.0036
1516.00,0.0036
1515.00,0.0037
1514.00,0.0038
1513.00,0.0039
1512.00,0.0040
1511.00,0.0042
1510.00,0.0043
1509.00,0.0045
1508.00,0.0047
1507.00,0.0050
1506.00,0.0054
1505.00,0.0058
1504.00,0.0064
1503.00,0.0071
1502.00,0.0081
1501.00,0.0096
1500.00,0.0119
1499.00,0.0154
1498.00,0.0211
1497.00,0.0298
1496.00,0.0414
1495.00,0.0535
1494.00,0.0634
1493.00,0.0691
1492.00,0.0691
1491.00,0.0630
1490.00,0.0527
1489.00,0.0418
1488.00,0.0329
1487.00,0.0265
1486.00,0.0217
1485.00,0.0182
1484.00,0.0154
1483.00,0.0133
1482.00,0.0115
1481.00,0.0102
1480.00,0.0092
1479.00,0.0085
1478.00,0.0079
1477.00,0.0075
1476.00,0.0072
1475.00,0.0069
1474.00,0.0067
1473.00,0.0066
1472.00,0.0066
1471.00,0.0067
1470.00,0.0068
1469.00,0.0069
1468.00,0.0072
1467.00,0.0074
1466.00,0.0076
1465.00,0.0079
1464.00,0.0083
1463.00,0.0088
1462.00,0.0095
1461.00,0.0106
1460.00,0.0121
1459.00,0.0147
1458.00,0.0196
1457.00,0.0282
1456.00,0.0394
1455.00,0.0505
1454.00,0.0601
1453.00,0.0673
1452.00,0.0709
1451.00,0.0702
1450.00,0.0663
1449.00,0.0608
1448.00,0.0551
1447.00,0.0501
1446.00,0.0459
1445.00,0.0423
1444.00,0.0390
1443.00,0.0357
1442.00,0.0326
1441.00,0.0300
1440.00,0.0277
1439.00,0.0256
1438.00,0.0234
1437.00,0.0211
1436.00,0.0187
1435.00,0.0166
1434.00,0.0150
1433.00,0.0137
1432.00,0.0124
1431.00,0.0112
1430.00,0.0102
1429.00,0.0093
1428.00,0.0087
1427.00,0.0082
1426.00,0.0078
1425.00,0.0074
1424.00,0.0071
1423.00,0.0069
1422.00,0.0067
1421.00,0.0066
1420.00,0.0064
1419.00,0.0063
1418.00,0.0061
1417.00,0.0060
1416.00,0.0058
1415.00,0.0057
1414.00,0.0056
1413.00,0.0055
1412.00,0.0054
1411.00,0.0054
1410.00,0.0053
1409.00,0.0052
1408.00,0.0052
1407.00,0.0051
1406.00,0.0050
1405.00,0.0050
1404.00,0.0049
1403.00,0.0048
1402.00,0.0047
1401.00,0.0047
1400.00,0.0046
1399.00,0.0046
1398.00,0.0047
1397.00,0.0047
1396.00,0.0048
1395.00,0.0049
1394.00,0.0052
1393.00,0.0055
1392.00,0.0058
1391.00,0.0062
1390.00,0.0067
1389.00,0.0072
1388.00,0.0077
1387.00,0.0082
1386.00,0.0088
1385.00,0.0092
1384.00,0.0097
1383.00,0.0101
1382.00,0.0106
1381.00,0.0111
1380.00,0.0115
1379.00,0.0121
1378.00,0.0126
1377.00,0.0131
1376.00,0.0135
1375.00,0.0139
1374.00,0.0142
1373.00,0.0144
1372.00,0.0144
1371.00,0.0145
1370.00,0.0145
1369.00,0.0145
1368.00,0.0144
1367.00,0.0143
1366.00,0.0142
1365.00,0.0142
1364.00,0.0141
1363.00,0.0140
1362.00,0.0138
1361.00,0.0137
1360.00,0.0134
1359.00,0.0132
1358.00,0.0130
1357.00,0.0128
1356.00,0.0127
1355.00,0.0126
1354.00,0.0125
1353.00,0.0125
1352.00,0.0125
1351.00,0.0125
1350.00,0.0125
1349.00,0.0125
1348.00,0.0124
1347.00,0.0123
1346.00,0.0122
1345.00,0.0120
1344.00,0.0118
1343.00,0.0115
1342.00,0.0114
1341.00,0.0112
1340.00,0.0111
1339.00,0.0110
1338.00,0.0109
1337.00,0.0109
1336.00,0.0110
1335.00,0.0113
1334.00,0.0116
1333.00,0.0119
1332.00,0.0122
1331.00,0.0126
1330.00,0.0128
1329.00,0.0130
1328.00,0.0130
1327.00,0.0129
1326.00,0.0128
1325.00,0.0126
1324.00,0.0124
1323.00,0.0122
1322.00,0.0121
1321.00,0.0120
1320.00,0.0120
1319.00,0.0120
1318.00,0.0121
1317.00,0.0122
1316.00,0.0124
1315.00,0.0126
1314.00,0.0127
1313.00,0.0128
1312.00,0.0128
1311.00,0.0128
1310.00,0.0127
1309.00,0.0125
1308.00,0.0124
1307.00,0.0121
1306.00,0.0119
1305.00,0.0117
1304.00,0.0115
1303.00,0.0113
1302.00,0.0111
1301.00,0.0109
1300.00,0.0107
1299.00,0.0105
1298.00,0.0103
1297.00,0.0103
1296.00,0.0102
1295.00,0.0101
1294.00,0.0101
1293.00,0.0100
1292.00,0.0099
1291.00,0.0098
1290.00,0.0097
1289.00,0.0096
1288.00,0.0094
1287.00,0.0093
1286.00,0.0093
1285.00,0.0093
1284.00,0.0092
1283.00,0.0092
1282.00,0.0092
1281.00,0.0091
1280.00,0.0090
1279.00,0.0088
1278.00,0.0086
1277.00,0.0084
1276.00,0.0082
1275.00,0.0080
1274.00,0.0078
1273.00,0.0075
1272.00,0.0073
1271.00,0.0071
1270.00,0.0069
1269.00,0.0068
1268.00,0.0066
1267.00,0.0065
1266.00,0.0064
1265.00,0.0063
1264.00,0.0062
1263.00,0.0062
1262.00,0.0061
1261.00,0.0061
1260.00,0.0061
1259.00,0.0061
1258.00,0.0061
1257.00,0.0061
1256.00,0.0061
1255.00,0.0061
1254.00,0.0061
1253.00,0.0061
1252.00,0.0061
1251.00,0.0062
1250.00,0.0062
1249.00,0.0063
1248.00,0.0064
1247.00,0.0064
1246.00,0.0064
1245.00,0.0064
1244.00,0.0064
1243.00,0.0065
1242.00,0.0064
1241.00,0.0064
1240.00,0.0064
1239.00,0.0063
1238.00,0.0063
1237.00,0.0064
1236.00,0.0064
1235.00,0.0064
1234.00,0.0064
1233.00,0.0064
1232.00,0.0064
1231.00,0.0064
1230.00,0.0065
1229.00,0.0066
1228.00,0.0066
1227.00,0.0067
1226.00,0.0068
1225.00,0.0068
1224.00,0.0069
1223.00,0.0069
1222.00,0.0069
1221.00,0.0069
1220.00,0.0069
1219.00,0.0070
1218.00,0.0070
1217.00,0.0070
1216.00,0.0071
1215.00,0.0072
1214.00,0.0072
1213.00,0.0074
1212.00,0.0075
1211.00,0.0076
1210.00,0.0078
1209.00,0.0079
1208.00,0.0081
1207.00,0.0083
1206.00,0.0085
1205.00,0.0088
1204.00,0.0091
1203.00,0.0093
1202.00,0.0096
1201.00,0.0099
1200.00,0.0101
1199.00,0.0103
1198.00,0.0105
1197.00,0.0106
1196.00,0.0107
1195.00,0.0108
1194.00,0.0108
1193.00,0.0108
1192.00,0.0108
1191.00,0.0109
1190.00,0.0109
1189.00,0.0110
1188.00,0.0113
1187.00,0.0116
1186.00,0.0121
1185.00,0.0127
1184.00,0.0134
1183.00,0.0140
1182.00,0.0144
1181.00,0.0145
1180.00,0.0142
1179.00,0.0134
1178.00,0.0123
1177.00,0.0112
1176.00,0.0102
1175.00,0.0093
1174.00,0.0087
1173.00,0.0082
1172.00,0.0079
1171.00,0.0077
1170.00,0.0076
1169.00,0.0075
1168.00,0.0074
1167.00,0.0074
1166.00,0.0074
1165.00,0.0075
1164.00,0.0076
1163.00,0.0079
1162.00,0.0083
1161.00,0.0088
1160.00,0.0095
1159.00,0.0104
1158.00,0.0114
1157.00,0.0125
1156.00,0.0133
1155.00,0.0138
1154.00,0.0138
1153.00,0.0132
1152.00,0.0123
1151.00,0.0111
1150.00,0.0098
1149.00,0.0087
1148.00,0.0078
1147.00,0.0072
1146.00,0.0067
1145.00,0.0063
1144.00,0.0060
1143.00,0.0057
1142.00,0.0055
1141.00,0.0053
1140.00,0.0051
1139.00,0.0050
1138.00,0.0049
1137.00,0.0049
1136.00,0.0049
1135.00,0.0049
1134.00,0.0049
1133.00,0.0049
1132.00,0.0050
1131.00,0.0050
1130.00,0.0051
1129.00,0.0051
1128.00,0.0052
1127.00,0.0053
1126.00,0.0053
1125.00,0.0054
1124.00,0.0055
1123.00,0.0056
1122.00,0.0057
1121.00,0.0059
1120.00,0.0061
1119.00,0.0064
1118.00,0.0066
1117.00,0.0069
1116.00,0.0072
1115.00,0.0075
1114.00,0.0077
1113.00,0.0078
1112.00,0.0078
1111.00,0.0079
1110.00,0.0078
1109.00,0.0078
1108.00,0.0077
1107.00,0.0077
1106.00,0.0076
1105.00,0.0076
1104.00,0.0076
1103.00,0.0076
1102.00,0.0077
1101.00,0.0078
1100.00,0.0079
1099.00,0.0080
1098.00,0.0081
1097.00,0.0082
1096.00,0.0083
1095.00,0.0084
1094.00,0.0085
1093.00,0.0086
1092.00,0.0087
1091.00,0.0089
1090.00,0.0091
1089.00,0.0093
1088.00,0.0095
1087.00,0.0098
1086.00,0.0101
1085.00,0.0105
1084.00,0.0110
1083.00,0.0115
1082.00,0.0120
1081.00,0.0125
1080.00,0.0129
1079.00,0.0134
1078.00,0.0139
1077.00,0.0145
1076.00,0.0152
1075.00,0.0161
1074.00,0.0170
1073.00,0.0180
1072.00,0.0188
1071.00,0.0195
1070.00,0.0199
1069.00,0.0201
1068.00,0.0201
1067.00,0.0198
1066.00,0.0192
1065.00,0.0185
1064.00,0.0176
1063.00,0.0168
1062.00,0.0160
1061.00,0.0152
1060.00,0.0146
1059.00,0.0140
1058.00,0.0135
1057.00,0.0130
1056.00,0.0126
1055.00,0.0123
1054.00,0.0120
1053.00,0.0117
1052.00,0.0114
1051.00,0.0112
1050.00,0.0110
1049.00,0.0108
1048.00,0.0106
1047.00,0.0105
1046.00,0.0104
1045.00,0.0104
1044.00,0.0104
1043.00,0.0104
1042.00,0.0105
1041.00,0.0106
1040.00,0.0109
1039.00,0.0115
1038.00,0.0124
1037.00,0.0138
1036.00,0.0157
1035.00,0.0182
1034.00,0.0214
1033.00,0.0249
1032.00,0.0286
1031.00,0.0319
1030.00,0.0346
1029.00,0.0365
1028.00,0.0372
1027.00,0.0367
1026.00,0.0350
1025.00,0.0325
1024.00,0.0298
1023.00,0.0273
1022.00,0.0251
1021.00,0.0233
1020.00,0.0218
1019.00,0.0205
1018.00,0.0194
1017.00,0.0184
1016.00,0.0175
1015.00,0.0168
1014.00,0.0162
1013.00,0.0156
1012.00,0.0152
1011.00,0.0148
1010.00,0.0145
1009.00,0.0143
1008.00,0.0144
1007.00,0.0146
1006.00,0.0150
1005.00,0.0154
1004.00,0.0158
1003.00,0.0158
1002.00,0.0154
1001.00,0.0147
1000.00,0.0137
999.00,0.0128
998.00,0.0120
997.00,0.0115
996.00,0.0112
995.00,0.0110
994.00,0.0110
993.00,0.0110
992.00,0.0111
991.00,0.0112
990.00,0.0114
989.00,0.0116
988.00,0.0118
987.00,0.0121
986.00,0.0124
985.00,0.0127
984.00,0.0131
983.00,0.0135
982.00,0.0138
981.00,0.0139
980.00,0.0140
979.00,0.0139
978.00,0.0136
977.00,0.0133
976.00,0.0129
975.00,0.0125
974.00,0.0122
973.00,0.0120
972.00,0.0119
971.00,0.0121
970.00,0.0124
969.00,0.0128
968.00,0.0133
967.00,0.0138
966.00,0.0142
965.00,0.0144
964.00,0.0144
963.00,0.0142
962.00,0.0139
961.00,0.0133
960.00,0.0127
959.00,0.0120
958.00,0.0113
957.00,0.0108
956.00,0.0104
955.00,0.0102
954.00,0.0101
953.00,0.0101
952.00,0.0103
951.00,0.0104
950.00,0.0106
949.00,0.0109
948.00,0.0111
947.00,0.0113
946.00,0.0114
945.00,0.0115
944.00,0.0115
943.00,0.0115
942.00,0.0114
941.00,0.0113
940.00,0.0110
939.00,0.0107
938.00,0.0104
937.00,0.0100
936.00,0.0097
935.00,0.0094
934.00,0.0091
933.00,0.0088
932.00,0.0086
931.00,0.0084
930.00,0.0082
929.00,0.0082
928.00,0.0082
927.00,0.0083
926.00,0.0085
925.00,0.0087
924.00,0.0089
923.00,0.0091
922.00,0.0094
921.00,0.0097
920.00,0.0101
919.00,0.0106
918.00,0.0113
917.00,0.0121
916.00,0.0130
915.00,0.0142
914.00,0.0156
913.00,0.0172
912.00,0.0189
911.00,0.0206
910.00,0.0222
909.00,0.0237
908.00,0.0248
907.00,0.0254
906.00,0.0255
905.00,0.0250
904.00,0.0240
903.00,0.0225
902.00,0.0207
901.00,0.0188
900.00,0.0168
899.00,0.0151
898.00,0.0135
897.00,0.0123
896.00,0.0113
895.00,0.0105
894.00,0.0099
893.00,0.0095
892.00,0.0091
891.00,0.0088
890.00,0.0085
889.00,0.0082
888.00,0.0080
887.00,0.0077
886.00,0.0075
885.00,0.0073
884.00,0.0072
883.00,0.0071
882.00,0.0070
881.00,0.0069
880.00,0.0068
879.00,0.0067
878.00,0.0066
877.00,0.0065
876.00,0.0065
875.00,0.0064
874.00,0.0064
873.00,0.0063
872.00,0.0063
871.00,0.0063
870.00,0.0063
869.00,0.0062
868.00,0.0062
867.00,0.0062
866.00,0.0061
865.00,0.0061
864.00,0.0061
863.00,0.0061
862.00,0.0061
861.00,0.0061
860.00,0.0061
859.00,0.0061
858.00,0.0062
857.00,0.0062
856.00,0.0064
855.00,0.0066
854.00,0.0068
853.00,0.0071
852.00,0.0074
851.00,0.0079
850.00,0.0085
849.00,0.0092
848.00,0.0099
847.00,0.0106
846.00,0.0114
845.00,0.0120
844.00,0.0125
843.00,0.0129
842.00,0.0131
841.00,0.0131
840.00,0.0129
839.00,0.0124
838.00,0.0117
837.00,0.0109
836.00,0.0100
835.00,0.0091
834.00,0.0083
833.00,0.0076
832.00,0.0070
831.00,0.0066
830.00,0.0063
829.00,0.0061
828.00,0.0059
827.00,0.0058
826.00,0.0057
825.00,0.0056
824.00,0.0055
823.00,0.0055
822.00,0.0055
821.00,0.0056
820.00,0.0056
819.00,0.0057
818.00,0.0058
817.00,0.0059
816.00,0.0059
815.00,0.0059
814.00,0.0059
813.00,0.0059
812.00,0.0060
811.00,0.0060
810.00,0.0060
809.00,0.0061
808.00,0.0062
807.00,0.0062
806.00,0.0062
805.00,0.0063
804.00,0.0064
803.00,0.0065
802.00,0.0067
801.00,0.0069
800.00,0.0071
799.00,0.0074
798.00,0.0077
797.00,0.0081
796.00,0.0085
795.00,0.0090
794.00,0.0096
793.00,0.0101
792.00,0.0108
791.00,0.0114
790.00,0.0121
789.00,0.0129
788.00,0.0138
787.00,0.0146
786.00,0.0155
785.00,0.0164
784.00,0.0175
783.00,0.0187
782.00,0.0200
781.00,0.0215
780.00,0.0231
779.00,0.0250
778.00,0.0273
777.00,0.0298
776.00,0.0326
775.00,0.0357
774.00,0.0391
773.00,0.0427
772.00,0.0466
771.00,0.0508
770.00,0.0552
769.00,0.0598
768.00,0.0644
767.00,0.0689
766.00,0.0733
765.00,0.0777
764.00,0.0821
763.00,0.0866
762.00,0.0912
761.00,0.0960
760.00,0.1006
759.00,0.1049
758.00,0.1086
757.00,0.1114
756.00,0.1132
755.00,0.1140
754.00,0.1140
753.00,0.1136
752.00,0.1131
751.00,0.1126
750.00,0.1123
749.00,0.1119
748.00,0.1111
747.00,0.1092
746.00,0.1058
745.00,0.1008
744.00,0.0943
743.00,0.0869
742.00,0.0791
741.00,0.0716
740.00,0.0645
739.00,0.0581
738.00,0.0523
737.00,0.0469
736.00,0.0417
735.00,0.0367
734.00,0.0320
733.00,0.0277
732.00,0.0240
731.00,0.0210
730.00,0.0186
729.00,0.0168
728.00,0.0155
727.00,0.0145
726.00,0.0138
725.00,0.0134
724.00,0.0131
723.00,0.0129
722.00,0.0128
721.00,0.0128
720.00,0.0129
719.00,0.0132
718.00,0.0136
717.00,0.0142
716.00,0.0150
715.00,0.0163
714.00,0.0181
713.00,0.0207
712.00,0.0244
711.00,0.0294
710.00,0.0362
709.00,0.0451
708.00,0.0566
707.00,0.0708
706.00,0.0879
705.00,0.1082
704.00,0.1316
703.00,0.1580
702.00,0.1874
701.00,0.2193
700.00,0.2533
699.00,0.2883
698.00,0.3230
697.00,0.3540
696.00,0.3758
695.00,0.3820
694.00,0.3688
693.00,0.3380
692.00,0.2965
691.00,0.2530
690.00,0.2138
689.00,0.1812
688.00,0.1551
687.00,0.1348
686.00,0.1190
685.00,0.1065
684.00,0.0963
683.00,0.0878
682.00,0.0808
681.00,0.0747
680.00,0.0695
679.00,0.0651
678.00,0.0613
677.00,0.0581
676.00,0.0554
675.00,0.0530
674.00,0.0509
673.00,0.0490
672.00,0.0473
671.00,0.0459
670.00,0.0445
669.00,0.0431
668.00,0.0414
667.00,0.0396
666.00,0.0379
665.00,0.0364
664.00,0.0350
663.00,0.0336
662.00,0.0322
661.00,0.0308
660.00,0.0293
659.00,0.0279
658.00,0.0267
657.00,0.0256
656.00,0.0246
655.00,0.0237
654.00,0.0228
653.00,0.0219
652.00,0.0211
651.00,0.0203
650.00,0.0197
649.00,0.0191
648.00,0.0186
647.00,0.0181
646.00,0.0177
645.00,0.0174
644.00,0.0171
643.00,0.0169
642.00,0.0168
641.00,0.0168
640.00,0.0169
639.00,0.0170
638.00,0.0173
637.00,0.0177
636.00,0.0182
635.00,0.0187
634.00,0.0192
633.00,0.0198
632.00,0.0202
631.00,0.0206
630.00,0.0210
629.00,0.0213
628.00,0.0215
627.00,0.0217
626.00,0.0219
625.00,0.0222
624.00,0.0226
623.00,0.0232
622.00,0.0237
621.00,0.0240
620.00,0.0239
619.00,0.0233
618.00,0.0226
617.00,0.0219
616.00,0.0212
615.00,0.0207
614.00,0.0202
613.00,0.0198
612.00,0.0194
611.00,0.0190
610.00,0.0187
609.00,0.0184
608.00,0.0183
607.00,0.0183
606.00,0.0183
605.00,0.0184
604.00,0.0184
603.00,0.0184
602.00,0.0184
601.00,0.0185
600.00,0.0187
599.00,0.0189
598.00,0.0192
597.00,0.0195
596.00,0.0199
595.00,0.0202
594.00,0.0206
593.00,0.0210
592.00,0.0213
591.00,0.0216
590.00,0.0218
589.00,0.0220
588.00,0.0222
587.00,0.0224
586.00,0.0227
585.00,0.0232
584.00,0.0237
583.00,0.0244
582.00,0.0252
581.00,0.0260
580.00,0.0270
579.00,0.0282
578.00,0.0294
577.00,0.0307
576.00,0.0321
575.00,0.0336
574.00,0.0351
573.00,0.0367
572.00,0.0383
571.00,0.0398
570.00,0.0413
569.00,0.0427
568.00,0.0441
567.00,0.0455
566.00,0.0469
565.00,0.0483
564.00,0.0499
563.00,0.0515
562.00,0.0530
561.00,0.0546
560.00,0.0561
559.00,0.0576
558.00,0.0592
557.00,0.0609
556.00,0.0626
555.00,0.0643
554.00,0.0659
553.00,0.0678
552.00,0.0698
551.00,0.0720
550.00,0.0743
549.00,0.0769
548.00,0.0799
547.00,0.0831
546.00,0.0866
545.00,0.0904
544.00,0.0944
543.00,0.0983
542.00,0.1021
541.00,0.1055
540.00,0.1084
539.00,0.1102
538.00,0.1106
537.00,0.1096
536.00,0.1074
535.00,0.1038
534.00,0.0991
533.00,0.0937
532.00,0.0882
531.00,0.0825
530.00,0.0770
529.00,0.0717
528.00,0.0669
527.00,0.0622
526.00,0.0578
525.00,0.0538
524.00,0.0503
523.00,0.0474
522.00,0.0449
521.00,0.0428
520.00,0.0411
519.00,0.0395
518.00,0.0381
517.00,0.0368
516.00,0.0356
515.00,0.0345
514.00,0.0334
513.00,0.0323
512.00,0.0313
511.00,0.0303
510.00,0.0293
509.00,0.0284
508.00,0.0275
507.00,0.0266
506.00,0.0257
505.00,0.0249
504.00,0.0242
503.00,0.0235
502.00,0.0228
501.00,0.0222
500.00,0.0216
499.00,0.0210
498.00,0.0205
497.00,0.0200
496.00,0.0196
495.00,0.0194
494.00,0.0191
493.00,0.0188
492.00,0.0185
491.00,0.0181
490.00,0.0178
489.00,0.0175
488.00,0.0172
487.00,0.0170
486.00,0.0168
485.00,0.0167
484.00,0.0166
483.00,0.0166
482.00,0.0164
481.00,0.0161
480.00,0.0156
479.00,0.0153
478.00,0.0151
477.00,0.0151
476.00,0.0150
475.00,0.0147
474.00,0.0144
473.00,0.0141
472.00,0.0141
471.00,0.0142
470.00,0.0143
469.00,0.0145
468.00,0.0145
467.00,0.0142
466.00,0.0137
465.00,0.0133
464.00,0.0129
463.00,0.0126
462.00,0.0125
461.00,0.0126
460.00,0.0128
459.00,0.0131
458.00,0.0133
457.00,0.0133
456.00,0.0131
455.00,0.0129
454.00,0.0129
453.00,0.0130
452.00,0.0132
451.00,0.0133
450.00,0.0134
449.00,0.0134
448.00,0.0134
447.00,0.0134
446.00,0.0132
445.00,0.0130
444.00,0.0129
443.00,0.0125
442.00,0.0121
441.00,0.0118
440.00,0.0119
439.00,0.0121
438.00,0.0122
437.00,0.0121
436.00,0.0119
435.00,0.0116
434.00,0.0113
433.00,0.0110
432.00,0.0109
431.00,0.0110
430.00,0.0111
429.00,0.0110
428.00,0.0106
427.00,0.0102
426.00,0.0099
425.00,0.0097
424.00,0.0097
423.00,0.0099
422.00,0.0103
421.00,0.0106
420.00,0.0106
419.00,0.0104
418.00,0.0099
417.00,0.0096
416.00,0.0095
415.00,0.0098
414.00,0.0102
413.00,0.0107
412.00,0.0112
411.00,0.0116
410.00,0.0119
409.00,0.0123
408.00,0.0127
407.00,0.0131
406.00,0.0132
405.00,0.0131
404.00,0.0127
403.00,0.0121
402.00,0.0113
401.00,0.0104
400.00,0.0097
