Created as New Dataset,Sample 841 By YargerLab Date Monday, July 21 2025
cm-1,A
4000.00,0.0008
3999.00,0.0008
3998.00,0.0008
3997.00,0.0008
3996.00,0.0008
3995.00,0.0008
3994.00,0.0008
3993.00,0.0007
3992.00,0.0007
3991.00,0.0007
3990.00,0.0007
3989.00,0.0008
3988.00,0.0008
3987.00,0.0008
3986.00,0.0008
3985.00,0.0008
3984.00,0.0008
3983.00,0.0008
3982.00,0.0007
3981.00,0.0007
3980.00,0.0007
3979.00,0.0008
3978.00,0.0008
3977.00,0.0008
3976.00,0.0008
3975.00,0.0008
3974.00,0.0008
3973.00,0.0008
3972.00,0.0008
3971.00,0.0008
3970.00,0.0008
3969.00,0.0008
3968.00,0.0008
3967.00,0.0008
3966.00,0.0008
3965.00,0.0008
3964.00,0.0007
3963.00,0.0007
3962.00,0.0007
3961.00,0.0007
3960.00,0.0007
3959.00,0.0008
3958.00,0.0008
3957.00,0.0008
3956.00,0.0008
3955.00,0.0008
3954.00,0.0007
3953.00,0.0007
3952.00,0.0007
3951.00,0.0007
3950.00,0.0007
3949.00,0.0007
3948.00,0.0007
3947.00,0.0007
3946.00,0.0007
3945.00,0.0008
3944.00,0.0008
3943.00,0.0008
3942.00,0.0008
3941.00,0.0007
3940.00,0.0007
3939.00,0.0007
3938.00,0.0007
3937.00,0.0007
3936.00,0.0007
3935.00,0.0007
3934.00,0.0007
3933.00,0.0007
3932.00,0.0007
3931.00,0.0007
3930.00,0.0007
3929.00,0.0007
3928.00,0.0007
3927.00,0.0007
3926.00,0.0007
3925.00,0.0007
3924.00,0.0007
3923.00,0.0007
3922.00,0.0007
3921.00,0.0007
3920.00,0.0007
3919.00,0.0007
3918.00,0.0007
3917.00,0.0007
3916.00,0.0007
3915.00,0.0007
3914.00,0.0007
3913.00,0.0007
3912.00,0.0007
3911.00,0.0007
3910.00,0.0007
3909.00,0.0007
3908.00,0.0007
3907.00,0.0007
3906.00,0.0007
3905.00,0.0007
3904.00,0.0007
3903.00,0.0007
3902.00,0.0008
3901.00,0.0007
3900.00,0.0007
3899.00,0.0007
3898.00,0.0007
3897.00,0.0007
3896.00,0.0007
3895.00,0.0007
3894.00,0.0007
3893.00,0.0007
3892.00,0.0007
3891.00,0.0007
3890.00,0.0008
3889.00,0.0008
3888.00,0.0007
3887.00,0.0007
3886.00,0.0007
3885.00,0.0007
3884.00,0.0007
3883.00,0.0007
3882.00,0.0006
3881.00,0.0006
3880.00,0.0006
3879.00,0.0006
3878.00,0.0006
3877.00,0.0006
3876.00,0.0007
3875.00,0.0007
3874.00,0.0007
3873.00,0.0007
3872.00,0.0007
3871.00,0.0006
3870.00,0.0006
3869.00,0.0006
3868.00,0.0006
3867.00,0.0006
3866.00,0.0006
3865.00,0.0007
3864.00,0.0007
3863.00,0.0007
3862.00,0.0007
3861.00,0.0007
3860.00,0.0007
3859.00,0.0008
3858.00,0.0008
3857.00,0.0008
3856.00,0.0007
3855.00,0.0007
3854.00,0.0006
3853.00,0.0006
3852.00,0.0006
3851.00,0.0006
3850.00,0.0006
3849.00,0.0007
3848.00,0.0007
3847.00,0.0007
3846.00,0.0007
3845.00,0.0007
3844.00,0.0007
3843.00,0.0007
3842.00,0.0007
3841.00,0.0006
3840.00,0.0006
3839.00,0.0007
3838.00,0.0007
3837.00,0.0007
3836.00,0.0007
3835.00,0.0007
3834.00,0.0007
3833.00,0.0007
3832.00,0.0007
3831.00,0.0007
3830.00,0.0007
3829.00,0.0007
3828.00,0.0007
3827.00,0.0007
3826.00,0.0008
3825.00,0.0007
3824.00,0.0007
3823.00,0.0007
3822.00,0.0007
3821.00,0.0007
3820.00,0.0007
3819.00,0.0006
3818.00,0.0006
3817.00,0.0006
3816.00,0.0007
3815.00,0.0007
3814.00,0.0007
3813.00,0.0007
3812.00,0.0007
3811.00,0.0008
3810.00,0.0008
3809.00,0.0008
3808.00,0.0008
3807.00,0.0008
3806.00,0.0008
3805.00,0.0008
3804.00,0.0007
3803.00,0.0007
3802.00,0.0007
3801.00,0.0007
3800.00,0.0007
3799.00,0.0007
3798.00,0.0007
3797.00,0.0007
3796.00,0.0007
3795.00,0.0007
3794.00,0.0007
3793.00,0.0007
3792.00,0.0007
3791.00,0.0007
3790.00,0.0008
3789.00,0.0008
3788.00,0.0008
3787.00,0.0008
3786.00,0.0008
3785.00,0.0008
3784.00,0.0008
3783.00,0.0008
3782.00,0.0008
3781.00,0.0008
3780.00,0.0008
3779.00,0.0008
3778.00,0.0008
3777.00,0.0008
3776.00,0.0008
3775.00,0.0008
3774.00,0.0008
3773.00,0.0008
3772.00,0.0008
3771.00,0.0008
3770.00,0.0008
3769.00,0.0008
3768.00,0.0008
3767.00,0.0008
3766.00,0.0008
3765.00,0.0008
3764.00,0.0008
3763.00,0.0008
3762.00,0.0008
3761.00,0.0008
3760.00,0.0008
3759.00,0.0008
3758.00,0.0008
3757.00,0.0008
3756.00,0.0008
3755.00,0.0008
3754.00,0.0008
3753.00,0.0008
3752.00,0.0008
3751.00,0.0008
3750.00,0.0008
3749.00,0.0008
3748.00,0.0008
3747.00,0.0007
3746.00,0.0007
3745.00,0.0007
3744.00,0.0008
3743.00,0.0007
3742.00,0.0007
3741.00,0.0007
3740.00,0.0007
3739.00,0.0007
3738.00,0.0007
3737.00,0.0007
3736.00,0.0007
3735.00,0.0007
3734.00,0.0007
3733.00,0.0006
3732.00,0.0006
3731.00,0.0006
3730.00,0.0006
3729.00,0.0007
3728.00,0.0007
3727.00,0.0007
3726.00,0.0007
3725.00,0.0007
3724.00,0.0007
3723.00,0.0007
3722.00,0.0007
3721.00,0.0007
3720.00,0.0007
3719.00,0.0007
3718.00,0.0007
3717.00,0.0007
3716.00,0.0007
3715.00,0.0007
3714.00,0.0006
3713.00,0.0006
3712.00,0.0006
3711.00,0.0006
3710.00,0.0006
3709.00,0.0006
3708.00,0.0006
3707.00,0.0007
3706.00,0.0007
3705.00,0.0007
3704.00,0.0007
3703.00,0.0007
3702.00,0.0007
3701.00,0.0007
3700.00,0.0007
3699.00,0.0007
3698.00,0.0007
3697.00,0.0007
3696.00,0.0007
3695.00,0.0007
3694.00,0.0007
3693.00,0.0006
3692.00,0.0006
3691.00,0.0006
3690.00,0.0006
3689.00,0.0006
3688.00,0.0006
3687.00,0.0007
3686.00,0.0007
3685.00,0.0007
3684.00,0.0007
3683.00,0.0008
3682.00,0.0008
3681.00,0.0008
3680.00,0.0008
3679.00,0.0008
3678.00,0.0007
3677.00,0.0006
3676.00,0.0006
3675.00,0.0005
3674.00,0.0005
3673.00,0.0005
3672.00,0.0005
3671.00,0.0005
3670.00,0.0005
3669.00,0.0006
3668.00,0.0006
3667.00,0.0006
3666.00,0.0006
3665.00,0.0006
3664.00,0.0007
3663.00,0.0007
3662.00,0.0007
3661.00,0.0006
3660.00,0.0006
3659.00,0.0006
3658.00,0.0007
3657.00,0.0007
3656.00,0.0007
3655.00,0.0006
3654.00,0.0006
3653.00,0.0006
3652.00,0.0006
3651.00,0.0006
3650.00,0.0006
3649.00,0.0006
3648.00,0.0006
3647.00,0.0006
3646.00,0.0006
3645.00,0.0007
3644.00,0.0007
3643.00,0.0007
3642.00,0.0007
3641.00,0.0007
3640.00,0.0007
3639.00,0.0007
3638.00,0.0006
3637.00,0.0006
3636.00,0.0006
3635.00,0.0006
3634.00,0.0006
3633.00,0.0006
3632.00,0.0006
3631.00,0.0006
3630.00,0.0006
3629.00,0.0006
3628.00,0.0006
3627.00,0.0006
3626.00,0.0006
3625.00,0.0006
3624.00,0.0007
3623.00,0.0007
3622.00,0.0007
3621.00,0.0007
3620.00,0.0007
3619.00,0.0007
3618.00,0.0007
3617.00,0.0007
3616.00,0.0007
3615.00,0.0007
3614.00,0.0007
3613.00,0.0007
3612.00,0.0008
3611.00,0.0008
3610.00,0.0008
3609.00,0.0007
3608.00,0.0007
3607.00,0.0007
3606.00,0.0007
3605.00,0.0007
3604.00,0.0007
3603.00,0.0007
3602.00,0.0007
3601.00,0.0007
3600.00,0.0007
3599.00,0.0007
3598.00,0.0007
3597.00,0.0007
3596.00,0.0007
3595.00,0.0007
3594.00,0.0008
3593.00,0.0008
3592.00,0.0008
3591.00,0.0008
3590.00,0.0008
3589.00,0.0008
3588.00,0.0008
3587.00,0.0008
3586.00,0.0008
3585.00,0.0008
3584.00,0.0008
3583.00,0.0008
3582.00,0.0008
3581.00,0.0008
3580.00,0.0008
3579.00,0.0008
3578.00,0.0008
3577.00,0.0008
3576.00,0.0008
3575.00,0.0008
3574.00,0.0008
3573.00,0.0009
3572.00,0.0009
3571.00,0.0009
3570.00,0.0008
3569.00,0.0008
3568.00,0.0007
3567.00,0.0007
3566.00,0.0007
3565.00,0.0007
3564.00,0.0008
3563.00,0.0008
3562.00,0.0009
3561.00,0.0009
3560.00,0.0009
3559.00,0.0009
3558.00,0.0009
3557.00,0.0009
3556.00,0.0009
3555.00,0.0009
3554.00,0.0009
3553.00,0.0009
3552.00,0.0009
3551.00,0.0009
3550.00,0.0009
3549.00,0.0009
3548.00,0.0009
3547.00,0.0009
3546.00,0.0009
3545.00,0.0009
3544.00,0.0009
3543.00,0.0009
3542.00,0.0010
3541.00,0.0010
3540.00,0.0010
3539.00,0.0010
3538.00,0.0010
3537.00,0.0010
3536.00,0.0010
3535.00,0.0010
3534.00,0.0010
3533.00,0.0010
3532.00,0.0010
3531.00,0.0010
3530.00,0.0010
3529.00,0.0010
3528.00,0.0010
3527.00,0.0010
3526.00,0.0010
3525.00,0.0010
3524.00,0.0010
3523.00,0.0010
3522.00,0.0011
3521.00,0.0011
3520.00,0.0011
3519.00,0.0010
3518.00,0.0010
3517.00,0.0011
3516.00,0.0011
3515.00,0.0011
3514.00,0.0011
3513.00,0.0011
3512.00,0.0011
3511.00,0.0011
3510.00,0.0011
3509.00,0.0011
3508.00,0.0011
3507.00,0.0011
3506.00,0.0011
3505.00,0.0010
3504.00,0.0010
3503.00,0.0010
3502.00,0.0010
3501.00,0.0011
3500.00,0.0011
3499.00,0.0011
3498.00,0.0012
3497.00,0.0012
3496.00,0.0012
3495.00,0.0012
3494.00,0.0012
3493.00,0.0012
3492.00,0.0012
3491.00,0.0012
3490.00,0.0012
3489.00,0.0012
3488.00,0.0012
3487.00,0.0012
3486.00,0.0012
3485.00,0.0012
3484.00,0.0012
3483.00,0.0012
3482.00,0.0012
3481.00,0.0012
3480.00,0.0012
3479.00,0.0012
3478.00,0.0012
3477.00,0.0012
3476.00,0.0012
3475.00,0.0012
3474.00,0.0013
3473.00,0.0012
3472.00,0.0012
3471.00,0.0013
3470.00,0.0013
3469.00,0.0013
3468.00,0.0013
3467.00,0.0013
3466.00,0.0013
3465.00,0.0013
3464.00,0.0013
3463.00,0.0013
3462.00,0.0013
3461.00,0.0013
3460.00,0.0013
3459.00,0.0013
3458.00,0.0013
3457.00,0.0013
3456.00,0.0013
3455.00,0.0013
3454.00,0.0012
3453.00,0.0012
3452.00,0.0013
3451.00,0.0013
3450.00,0.0013
3449.00,0.0013
3448.00,0.0013
3447.00,0.0013
3446.00,0.0013
3445.00,0.0013
3444.00,0.0013
3443.00,0.0013
3442.00,0.0013
3441.00,0.0013
3440.00,0.0013
3439.00,0.0012
3438.00,0.0013
3437.00,0.0013
3436.00,0.0013
3435.00,0.0013
3434.00,0.0013
3433.00,0.0013
3432.00,0.0013
3431.00,0.0013
3430.00,0.0013
3429.00,0.0013
3428.00,0.0013
3427.00,0.0012
3426.00,0.0012
3425.00,0.0012
3424.00,0.0012
3423.00,0.0012
3422.00,0.0012
3421.00,0.0012
3420.00,0.0013
3419.00,0.0013
3418.00,0.0012
3417.00,0.0012
3416.00,0.0012
3415.00,0.0012
3414.00,0.0012
3413.00,0.0012
3412.00,0.0012
3411.00,0.0012
3410.00,0.0012
3409.00,0.0013
3408.00,0.0013
3407.00,0.0013
3406.00,0.0013
3405.00,0.0012
3404.00,0.0012
3403.00,0.0012
3402.00,0.0012
3401.00,0.0013
3400.00,0.0013
3399.00,0.0013
3398.00,0.0013
3397.00,0.0013
3396.00,0.0013
3395.00,0.0013
3394.00,0.0013
3393.00,0.0013
3392.00,0.0013
3391.00,0.0013
3390.00,0.0012
3389.00,0.0012
3388.00,0.0012
3387.00,0.0013
3386.00,0.0013
3385.00,0.0013
3384.00,0.0013
3383.00,0.0013
3382.00,0.0013
3381.00,0.0013
3380.00,0.0013
3379.00,0.0013
3378.00,0.0013
3377.00,0.0013
3376.00,0.0013
3375.00,0.0013
3374.00,0.0013
3373.00,0.0013
3372.00,0.0012
3371.00,0.0012
3370.00,0.0012
3369.00,0.0012
3368.00,0.0012
3367.00,0.0013
3366.00,0.0013
3365.00,0.0013
3364.00,0.0013
3363.00,0.0013
3362.00,0.0013
3361.00,0.0013
3360.00,0.0013
3359.00,0.0013
3358.00,0.0013
3357.00,0.0013
3356.00,0.0013
3355.00,0.0013
3354.00,0.0013
3353.00,0.0012
3352.00,0.0012
3351.00,0.0012
3350.00,0.0012
3349.00,0.0012
3348.00,0.0012
3347.00,0.0012
3346.00,0.0012
3345.00,0.0012
3344.00,0.0012
3343.00,0.0012
3342.00,0.0012
3341.00,0.0013
3340.00,0.0013
3339.00,0.0013
3338.00,0.0013
3337.00,0.0013
3336.00,0.0012
3335.00,0.0012
3334.00,0.0012
3333.00,0.0012
3332.00,0.0012
3331.00,0.0012
3330.00,0.0012
3329.00,0.0012
3328.00,0.0012
3327.00,0.0012
3326.00,0.0012
3325.00,0.0012
3324.00,0.0013
3323.00,0.0013
3322.00,0.0013
3321.00,0.0013
3320.00,0.0012
3319.00,0.0012
3318.00,0.0012
3317.00,0.0012
3316.00,0.0012
3315.00,0.0012
3314.00,0.0012
3313.00,0.0012
3312.00,0.0012
3311.00,0.0013
3310.00,0.0013
3309.00,0.0013
3308.00,0.0013
3307.00,0.0013
3306.00,0.0012
3305.00,0.0012
3304.00,0.0012
3303.00,0.0012
3302.00,0.0012
3301.00,0.0012
3300.00,0.0012
3299.00,0.0012
3298.00,0.0013
3297.00,0.0013
3296.00,0.0013
3295.00,0.0012
3294.00,0.0012
3293.00,0.0012
3292.00,0.0012
3291.00,0.0012
3290.00,0.0012
3289.00,0.0012
3288.00,0.0012
3287.00,0.0012
3286.00,0.0012
3285.00,0.0012
3284.00,0.0012
3283.00,0.0012
3282.00,0.0012
3281.00,0.0012
3280.00,0.0013
3279.00,0.0013
3278.00,0.0013
3277.00,0.0013
3276.00,0.0012
3275.00,0.0012
3274.00,0.0012
3273.00,0.0012
3272.00,0.0012
3271.00,0.0011
3270.00,0.0011
3269.00,0.0011
3268.00,0.0012
3267.00,0.0012
3266.00,0.0012
3265.00,0.0012
3264.00,0.0011
3263.00,0.0011
3262.00,0.0012
3261.00,0.0012
3260.00,0.0012
3259.00,0.0012
3258.00,0.0012
3257.00,0.0012
3256.00,0.0012
3255.00,0.0012
3254.00,0.0012
3253.00,0.0012
3252.00,0.0012
3251.00,0.0012
3250.00,0.0012
3249.00,0.0012
3248.00,0.0012
3247.00,0.0012
3246.00,0.0012
3245.00,0.0012
3244.00,0.0012
3243.00,0.0012
3242.00,0.0012
3241.00,0.0012
3240.00,0.0012
3239.00,0.0012
3238.00,0.0012
3237.00,0.0011
3236.00,0.0011
3235.00,0.0011
3234.00,0.0011
3233.00,0.0011
3232.00,0.0011
3231.00,0.0011
3230.00,0.0011
3229.00,0.0011
3228.00,0.0011
3227.00,0.0011
3226.00,0.0011
3225.00,0.0011
3224.00,0.0011
3223.00,0.0011
3222.00,0.0011
3221.00,0.0011
3220.00,0.0011
3219.00,0.0011
3218.00,0.0011
3217.00,0.0011
3216.00,0.0011
3215.00,0.0011
3214.00,0.0011
3213.00,0.0011
3212.00,0.0011
3211.00,0.0011
3210.00,0.0011
3209.00,0.0011
3208.00,0.0012
3207.00,0.0012
3206.00,0.0012
3205.00,0.0011
3204.00,0.0011
3203.00,0.0011
3202.00,0.0011
3201.00,0.0011
3200.00,0.0012
3199.00,0.0012
3198.00,0.0012
3197.00,0.0012
3196.00,0.0012
3195.00,0.0012
3194.00,0.0011
3193.00,0.0011
3192.00,0.0011
3191.00,0.0011
3190.00,0.0011
3189.00,0.0011
3188.00,0.0011
3187.00,0.0011
3186.00,0.0011
3185.00,0.0011
3184.00,0.0011
3183.00,0.0011
3182.00,0.0011
3181.00,0.0011
3180.00,0.0011
3179.00,0.0011
3178.00,0.0011
3177.00,0.0011
3176.00,0.0011
3175.00,0.0011
3174.00,0.0011
3173.00,0.0012
3172.00,0.0012
3171.00,0.0012
3170.00,0.0012
3169.00,0.0012
3168.00,0.0012
3167.00,0.0012
3166.00,0.0012
3165.00,0.0012
3164.00,0.0013
3163.00,0.0013
3162.00,0.0013
3161.00,0.0013
3160.00,0.0012
3159.00,0.0012
3158.00,0.0012
3157.00,0.0012
3156.00,0.0012
3155.00,0.0012
3154.00,0.0012
3153.00,0.0012
3152.00,0.0011
3151.00,0.0011
3150.00,0.0012
3149.00,0.0012
3148.00,0.0011
3147.00,0.0011
3146.00,0.0011
3145.00,0.0011
3144.00,0.0011
3143.00,0.0011
3142.00,0.0011
3141.00,0.0011
3140.00,0.0011
3139.00,0.0011
3138.00,0.0011
3137.00,0.0011
3136.00,0.0011
3135.00,0.0011
3134.00,0.0011
3133.00,0.0011
3132.00,0.0011
3131.00,0.0012
3130.00,0.0012
3129.00,0.0012
3128.00,0.0011
3127.00,0.0012
3126.00,0.0012
3125.00,0.0012
3124.00,0.0011
3123.00,0.0012
3122.00,0.0012
3121.00,0.0012
3120.00,0.0013
3119.00,0.0013
3118.00,0.0013
3117.00,0.0014
3116.00,0.0014
3115.00,0.0015
3114.00,0.0016
3113.00,0.0017
3112.00,0.0018
3111.00,0.0019
3110.00,0.0020
3109.00,0.0022
3108.00,0.0024
3107.00,0.0025
3106.00,0.0026
3105.00,0.0028
3104.00,0.0028
3103.00,0.0029
3102.00,0.0029
3101.00,0.0029
3100.00,0.0028
3099.00,0.0028
3098.00,0.0027
3097.00,0.0027
3096.00,0.0027
3095.00,0.0028
3094.00,0.0029
3093.00,0.0030
3092.00,0.0033
3091.00,0.0035
3090.00,0.0039
3089.00,0.0043
3088.00,0.0048
3087.00,0.0053
3086.00,0.0058
3085.00,0.0063
3084.00,0.0067
3083.00,0.0070
3082.00,0.0071
3081.00,0.0070
3080.00,0.0068
3079.00,0.0065
3078.00,0.0061
3077.00,0.0058
3076.00,0.0055
3075.00,0.0053
3074.00,0.0052
3073.00,0.0052
3072.00,0.0052
3071.00,0.0053
3070.00,0.0056
3069.00,0.0058
3068.00,0.0062
3067.00,0.0066
3066.00,0.0071
3065.00,0.0076
3064.00,0.0082
3063.00,0.0087
3062.00,0.0092
3061.00,0.0095
3060.00,0.0097
3059.00,0.0097
3058.00,0.0095
3057.00,0.0091
3056.00,0.0087
3055.00,0.0081
3054.00,0.0076
3053.00,0.0071
3052.00,0.0066
3051.00,0.0062
3050.00,0.0058
3049.00,0.0055
3048.00,0.0053
3047.00,0.0051
3046.00,0.0051
3045.00,0.0050
3044.00,0.0051
3043.00,0.0052
3042.00,0.0053
3041.00,0.0055
3040.00,0.0058
3039.00,0.0062
3038.00,0.0066
3037.00,0.0072
3036.00,0.0078
3035.00,0.0086
3034.00,0.0095
3033.00,0.0106
3032.00,0.0117
3031.00,0.0130
3030.00,0.0144
3029.00,0.0157
3028.00,0.0169
3027.00,0.0179
3026.00,0.0185
3025.00,0.0186
3024.00,0.0183
3023.00,0.0175
3022.00,0.0163
3021.00,0.0148
3020.00,0.0132
3019.00,0.0116
3018.00,0.0102
3017.00,0.0089
3016.00,0.0078
3015.00,0.0069
3014.00,0.0061
3013.00,0.0056
3012.00,0.0051
3011.00,0.0048
3010.00,0.0046
3009.00,0.0045
3008.00,0.0044
3007.00,0.0045
3006.00,0.0045
3005.00,0.0047
3004.00,0.0048
3003.00,0.0049
3002.00,0.0050
3001.00,0.0050
3000.00,0.0048
2999.00,0.0046
2998.00,0.0043
2997.00,0.0039
2996.00,0.0035
2995.00,0.0032
2994.00,0.0029
2993.00,0.0027
2992.00,0.0025
2991.00,0.0024
2990.00,0.0023
2989.00,0.0022
2988.00,0.0022
2987.00,0.0021
2986.00,0.0021
2985.00,0.0020
2984.00,0.0019
2983.00,0.0018
2982.00,0.0017
2981.00,0.0017
2980.00,0.0018
2979.00,0.0019
2978.00,0.0020
2977.00,0.0021
2976.00,0.0022
2975.00,0.0022
2974.00,0.0023
2973.00,0.0023
2972.00,0.0023
2971.00,0.0023
2970.00,0.0024
2969.00,0.0026
2968.00,0.0027
2967.00,0.0029
2966.00,0.0030
2965.00,0.0031
2964.00,0.0032
2963.00,0.0034
2962.00,0.0035
2961.00,0.0037
2960.00,0.0039
2959.00,0.0041
2958.00,0.0043
2957.00,0.0045
2956.00,0.0047
2955.00,0.0050
2954.00,0.0052
2953.00,0.0055
2952.00,0.0058
2951.00,0.0061
2950.00,0.0065
2949.00,0.0068
2948.00,0.0072
2947.00,0.0076
2946.00,0.0081
2945.00,0.0086
2944.00,0.0091
2943.00,0.0097
2942.00,0.0102
2941.00,0.0108
2940.00,0.0114
2939.00,0.0121
2938.00,0.0128
2937.00,0.0136
2936.00,0.0143
2935.00,0.0151
2934.00,0.0159
2933.00,0.0168
2932.00,0.0176
2931.00,0.0184
2930.00,0.0191
2929.00,0.0198
2928.00,0.0205
2927.00,0.0210
2926.00,0.0215
2925.00,0.0219
2924.00,0.0222
2923.00,0.0224
2922.00,0.0225
2921.00,0.0224
2920.00,0.0223
2919.00,0.0222
2918.00,0.0220
2917.00,0.0216
2916.00,0.0213
2915.00,0.0208
2914.00,0.0204
2913.00,0.0199
2912.00,0.0193
2911.00,0.0187
2910.00,0.0181
2909.00,0.0175
2908.00,0.0169
2907.00,0.0163
2906.00,0.0158
2905.00,0.0152
2904.00,0.0146
2903.00,0.0141
2902.00,0.0135
2901.00,0.0129
2900.00,0.0123
2899.00,0.0117
2898.00,0.0112
2897.00,0.0107
2896.00,0.0102
2895.00,0.0098
2894.00,0.0095
2893.00,0.0092
2892.00,0.0089
2891.00,0.0086
2890.00,0.0083
2889.00,0.0081
2888.00,0.0079
2887.00,0.0077
2886.00,0.0075
2885.00,0.0073
2884.00,0.0071
2883.00,0.0069
2882.00,0.0067
2881.00,0.0066
2880.00,0.0064
2879.00,0.0063
2878.00,0.0061
2877.00,0.0060
2876.00,0.0059
2875.00,0.0058
2874.00,0.0057
2873.00,0.0056
2872.00,0.0055
2871.00,0.0055
2870.00,0.0054
2869.00,0.0054
2868.00,0.0055
2867.00,0.0055
2866.00,0.0056
2865.00,0.0058
2864.00,0.0059
2863.00,0.0061
2862.00,0.0063
2861.00,0.0066
2860.00,0.0069
2859.00,0.0073
2858.00,0.0076
2857.00,0.0080
2856.00,0.0084
2855.00,0.0087
2854.00,0.0091
2853.00,0.0094
2852.00,0.0096
2851.00,0.0098
2850.00,0.0099
2849.00,0.0099
2848.00,0.0098
2847.00,0.0096
2846.00,0.0094
2845.00,0.0090
2844.00,0.0086
2843.00,0.0081
2842.00,0.0075
2841.00,0.0069
2840.00,0.0063
2839.00,0.0057
2838.00,0.0052
2837.00,0.0047
2836.00,0.0043
2835.00,0.0039
2834.00,0.0036
2833.00,0.0033
2832.00,0.0031
2831.00,0.0029
2830.00,0.0027
2829.00,0.0026
2828.00,0.0025
2827.00,0.0025
2826.00,0.0024
2825.00,0.0024
2824.00,0.0023
2823.00,0.0023
2822.00,0.0022
2821.00,0.0022
2820.00,0.0021
2819.00,0.0021
2818.00,0.0021
2817.00,0.0021
2816.00,0.0020
2815.00,0.0020
2814.00,0.0020
2813.00,0.0020
2812.00,0.0020
2811.00,0.0020
2810.00,0.0020
2809.00,0.0020
2808.00,0.0019
2807.00,0.0019
2806.00,0.0019
2805.00,0.0019
2804.00,0.0019
2803.00,0.0019
2802.00,0.0019
2801.00,0.0019
2800.00,0.0018
2799.00,0.0018
2798.00,0.0018
2797.00,0.0017
2796.00,0.0017
2795.00,0.0017
2794.00,0.0017
2793.00,0.0017
2792.00,0.0017
2791.00,0.0017
2790.00,0.0017
2789.00,0.0017
2788.00,0.0016
2787.00,0.0016
2786.00,0.0016
2785.00,0.0016
2784.00,0.0016
2783.00,0.0016
2782.00,0.0016
2781.00,0.0017
2780.00,0.0016
2779.00,0.0016
2778.00,0.0016
2777.00,0.0016
2776.00,0.0016
2775.00,0.0016
2774.00,0.0016
2773.00,0.0016
2772.00,0.0016
2771.00,0.0016
2770.00,0.0015
2769.00,0.0015
2768.00,0.0015
2767.00,0.0014
2766.00,0.0014
2765.00,0.0014
2764.00,0.0014
2763.00,0.0014
2762.00,0.0014
2761.00,0.0014
2760.00,0.0014
2759.00,0.0014
2758.00,0.0014
2757.00,0.0014
2756.00,0.0014
2755.00,0.0014
2754.00,0.0014
2753.00,0.0014
2752.00,0.0014
2751.00,0.0014
2750.00,0.0014
2749.00,0.0014
2748.00,0.0014
2747.00,0.0014
2746.00,0.0014
2745.00,0.0014
2744.00,0.0014
2743.00,0.0014
2742.00,0.0014
2741.00,0.0014
2740.00,0.0014
2739.00,0.0014
2738.00,0.0014
2737.00,0.0014
2736.00,0.0014
2735.00,0.0014
2734.00,0.0014
2733.00,0.0014
2732.00,0.0014
2731.00,0.0014
2730.00,0.0015
2729.00,0.0014
2728.00,0.0014
2727.00,0.0014
2726.00,0.0015
2725.00,0.0015
2724.00,0.0015
2723.00,0.0015
2722.00,0.0015
2721.00,0.0015
2720.00,0.0015
2719.00,0.0015
2718.00,0.0015
2717.00,0.0015
2716.00,0.0015
2715.00,0.0015
2714.00,0.0014
2713.00,0.0014
2712.00,0.0014
2711.00,0.0015
2710.00,0.0015
2709.00,0.0015
2708.00,0.0015
2707.00,0.0014
2706.00,0.0014
2705.00,0.0014
2704.00,0.0014
2703.00,0.0014
2702.00,0.0014
2701.00,0.0014
2700.00,0.0014
2699.00,0.0014
2698.00,0.0014
2697.00,0.0014
2696.00,0.0014
2695.00,0.0014
2694.00,0.0014
2693.00,0.0014
2692.00,0.0014
2691.00,0.0014
2690.00,0.0014
2689.00,0.0014
2688.00,0.0014
2687.00,0.0014
2686.00,0.0014
2685.00,0.0014
2684.00,0.0014
2683.00,0.0014
2682.00,0.0014
2681.00,0.0014
2680.00,0.0014
2679.00,0.0014
2678.00,0.0014
2677.00,0.0014
2676.00,0.0014
2675.00,0.0014
2674.00,0.0014
2673.00,0.0014
2672.00,0.0014
2671.00,0.0014
2670.00,0.0014
2669.00,0.0014
2668.00,0.0015
2667.00,0.0015
2666.00,0.0015
2665.00,0.0016
2664.00,0.0016
2663.00,0.0017
2662.00,0.0017
2661.00,0.0018
2660.00,0.0018
2659.00,0.0018
2658.00,0.0018
2657.00,0.0019
2656.00,0.0019
2655.00,0.0019
2654.00,0.0019
2653.00,0.0019
2652.00,0.0019
2651.00,0.0019
2650.00,0.0019
2649.00,0.0019
2648.00,0.0019
2647.00,0.0019
2646.00,0.0019
2645.00,0.0019
2644.00,0.0020
2643.00,0.0020
2642.00,0.0020
2641.00,0.0020
2640.00,0.0019
2639.00,0.0019
2638.00,0.0019
2637.00,0.0019
2636.00,0.0019
2635.00,0.0019
2634.00,0.0019
2633.00,0.0019
2632.00,0.0020
2631.00,0.0020
2630.00,0.0020
2629.00,0.0020
2628.00,0.0020
2627.00,0.0019
2626.00,0.0019
2625.00,0.0018
2624.00,0.0018
2623.00,0.0018
2622.00,0.0018
2621.00,0.0018
2620.00,0.0018
2619.00,0.0018
2618.00,0.0018
2617.00,0.0017
2616.00,0.0017
2615.00,0.0017
2614.00,0.0017
2613.00,0.0017
2612.00,0.0017
2611.00,0.0017
2610.00,0.0017
2609.00,0.0017
2608.00,0.0017
2607.00,0.0017
2606.00,0.0017
2605.00,0.0017
2604.00,0.0017
2603.00,0.0017
2602.00,0.0017
2601.00,0.0017
2600.00,0.0017
2599.00,0.0016
2598.00,0.0016
2597.00,0.0016
2596.00,0.0016
2595.00,0.0016
2594.00,0.0016
2593.00,0.0015
2592.00,0.0015
2591.00,0.0015
2590.00,0.0015
2589.00,0.0015
2588.00,0.0016
2587.00,0.0016
2586.00,0.0016
2585.00,0.0016
2584.00,0.0016
2583.00,0.0015
2582.00,0.0015
2581.00,0.0014
2580.00,0.0014
2579.00,0.0014
2578.00,0.0014
2577.00,0.0014
2576.00,0.0014
2575.00,0.0014
2574.00,0.0014
2573.00,0.0014
2572.00,0.0014
2571.00,0.0014
2570.00,0.0013
2569.00,0.0013
2568.00,0.0013
2567.00,0.0013
2566.00,0.0013
2565.00,0.0013
2564.00,0.0013
2563.00,0.0013
2562.00,0.0012
2561.00,0.0012
2560.00,0.0012
2559.00,0.0013
2558.00,0.0013
2557.00,0.0013
2556.00,0.0013
2555.00,0.0013
2554.00,0.0013
2553.00,0.0012
2552.00,0.0012
2551.00,0.0012
2550.00,0.0013
2549.00,0.0013
2548.00,0.0013
2547.00,0.0013
2546.00,0.0013
2545.00,0.0013
2544.00,0.0013
2543.00,0.0013
2542.00,0.0013
2541.00,0.0012
2540.00,0.0012
2539.00,0.0011
2538.00,0.0011
2537.00,0.0011
2536.00,0.0011
2535.00,0.0011
2534.00,0.0011
2533.00,0.0011
2532.00,0.0012
2531.00,0.0012
2530.00,0.0012
2529.00,0.0012
2528.00,0.0012
2527.00,0.0012
2526.00,0.0012
2525.00,0.0011
2524.00,0.0011
2523.00,0.0012
2522.00,0.0012
2521.00,0.0012
2520.00,0.0012
2519.00,0.0011
2518.00,0.0011
2517.00,0.0011
2516.00,0.0010
2515.00,0.0011
2514.00,0.0011
2513.00,0.0011
2512.00,0.0011
2511.00,0.0011
2510.00,0.0011
2509.00,0.0011
2508.00,0.0011
2507.00,0.0011
2506.00,0.0011
2505.00,0.0011
2504.00,0.0011
2503.00,0.0010
2502.00,0.0010
2501.00,0.0011
2500.00,0.0011
2499.00,0.0011
2498.00,0.0011
2497.00,0.0011
2496.00,0.0011
2495.00,0.0011
2494.00,0.0011
2493.00,0.0011
2492.00,0.0011
2491.00,0.0011
2490.00,0.0011
2489.00,0.0011
2488.00,0.0011
2487.00,0.0011
2486.00,0.0011
2485.00,0.0011
2484.00,0.0011
2483.00,0.0011
2482.00,0.0011
2481.00,0.0011
2480.00,0.0011
2479.00,0.0010
2478.00,0.0010
2477.00,0.0009
2476.00,0.0009
2475.00,0.0009
2474.00,0.0009
2473.00,0.0009
2472.00,0.0009
2471.00,0.0010
2470.00,0.0010
2469.00,0.0010
2468.00,0.0010
2467.00,0.0010
2466.00,0.0010
2465.00,0.0010
2464.00,0.0010
2463.00,0.0010
2462.00,0.0010
2461.00,0.0011
2460.00,0.0011
2459.00,0.0011
2458.00,0.0011
2457.00,0.0011
2456.00,0.0012
2455.00,0.0012
2454.00,0.0012
2453.00,0.0012
2452.00,0.0012
2451.00,0.0011
2450.00,0.0011
2449.00,0.0011
2448.00,0.0011
2447.00,0.0011
2446.00,0.0010
2445.00,0.0010
2444.00,0.0010
2443.00,0.0010
2442.00,0.0009
2441.00,0.0009
2440.00,0.0009
2439.00,0.0009
2438.00,0.0009
2437.00,0.0009
2436.00,0.0009
2435.00,0.0009
2434.00,0.0009
2433.00,0.0009
2432.00,0.0009
2431.00,0.0009
2430.00,0.0008
2429.00,0.0008
2428.00,0.0008
2427.00,0.0008
2426.00,0.0008
2425.00,0.0008
2424.00,0.0008
2423.00,0.0008
2422.00,0.0008
2421.00,0.0008
2420.00,0.0008
2419.00,0.0008
2418.00,0.0008
2417.00,0.0008
2416.00,0.0008
2415.00,0.0008
2414.00,0.0008
2413.00,0.0008
2412.00,0.0008
2411.00,0.0008
2410.00,0.0008
2409.00,0.0007
2408.00,0.0006
2407.00,0.0006
2406.00,0.0006
2405.00,0.0006
2404.00,0.0006
2403.00,0.0007
2402.00,0.0007
2401.00,0.0007
2400.00,0.0007
2399.00,0.0007
2398.00,0.0007
2397.00,0.0007
2396.00,0.0007
2395.00,0.0007
2394.00,0.0007
2393.00,0.0006
2392.00,0.0006
2391.00,0.0006
2390.00,0.0006
2389.00,0.0006
2388.00,0.0006
2387.00,0.0006
2386.00,0.0005
2385.00,0.0005
2384.00,0.0005
2383.00,0.0005
2382.00,0.0005
2381.00,0.0005
2380.00,0.0005
2379.00,0.0005
2378.00,0.0005
2377.00,0.0005
2376.00,0.0005
2375.00,0.0005
2374.00,0.0005
2373.00,0.0005
2372.00,0.0005
2371.00,0.0004
2370.00,0.0004
2369.00,0.0003
2368.00,0.0003
2367.00,0.0003
2366.00,0.0003
2365.00,0.0003
2364.00,0.0004
2363.00,0.0005
2362.00,0.0005
2361.00,0.0006
2360.00,0.0006
2359.00,0.0007
2358.00,0.0007
2357.00,0.0007
2356.00,0.0007
2355.00,0.0007
2354.00,0.0007
2353.00,0.0007
2352.00,0.0007
2351.00,0.0007
2350.00,0.0008
2349.00,0.0008
2348.00,0.0009
2347.00,0.0009
2346.00,0.0010
2345.00,0.0010
2344.00,0.0010
2343.00,0.0011
2342.00,0.0011
2341.00,0.0011
2340.00,0.0012
2339.00,0.0012
2338.00,0.0012
2337.00,0.0012
2336.00,0.0012
2335.00,0.0012
2334.00,0.0012
2333.00,0.0012
2332.00,0.0011
2331.00,0.0011
2330.00,0.0011
2329.00,0.0013
2328.00,0.0016
2327.00,0.0019
2326.00,0.0023
2325.00,0.0024
2324.00,0.0024
2323.00,0.0022
2322.00,0.0021
2321.00,0.0020
2320.00,0.0019
2319.00,0.0019
2318.00,0.0019
2317.00,0.0019
2316.00,0.0018
2315.00,0.0018
2314.00,0.0017
2313.00,0.0017
2312.00,0.0017
2311.00,0.0017
2310.00,0.0016
2309.00,0.0016
2308.00,0.0015
2307.00,0.0015
2306.00,0.0015
2305.00,0.0015
2304.00,0.0015
2303.00,0.0015
2302.00,0.0015
2301.00,0.0015
2300.00,0.0015
2299.00,0.0015
2298.00,0.0016
2297.00,0.0017
2296.00,0.0018
2295.00,0.0018
2294.00,0.0019
2293.00,0.0020
2292.00,0.0020
2291.00,0.0021
2290.00,0.0021
2289.00,0.0022
2288.00,0.0022
2287.00,0.0022
2286.00,0.0022
2285.00,0.0021
2284.00,0.0020
2283.00,0.0019
2282.00,0.0018
2281.00,0.0018
2280.00,0.0018
2279.00,0.0017
2278.00,0.0017
2277.00,0.0016
2276.00,0.0016
2275.00,0.0015
2274.00,0.0015
2273.00,0.0014
2272.00,0.0015
2271.00,0.0015
2270.00,0.0016
2269.00,0.0016
2268.00,0.0015
2267.00,0.0014
2266.00,0.0013
2265.00,0.0013
2264.00,0.0013
2263.00,0.0013
2262.00,0.0014
2261.00,0.0014
2260.00,0.0014
2259.00,0.0014
2258.00,0.0013
2257.00,0.0012
2256.00,0.0012
2255.00,0.0011
2254.00,0.0011
2253.00,0.0011
2252.00,0.0012
2251.00,0.0012
2250.00,0.0012
2249.00,0.0011
2248.00,0.0011
2247.00,0.0011
2246.00,0.0011
2245.00,0.0012
2244.00,0.0012
2243.00,0.0012
2242.00,0.0012
2241.00,0.0012
2240.00,0.0011
2239.00,0.0011
2238.00,0.0010
2237.00,0.0010
2236.00,0.0010
2235.00,0.0011
2234.00,0.0012
2233.00,0.0011
2232.00,0.0011
2231.00,0.0010
2230.00,0.0010
2229.00,0.0010
2228.00,0.0011
2227.00,0.0011
2226.00,0.0010
2225.00,0.0010
2224.00,0.0009
2223.00,0.0009
2222.00,0.0009
2221.00,0.0010
2220.00,0.0010
2219.00,0.0010
2218.00,0.0010
2217.00,0.0011
2216.00,0.0011
2215.00,0.0012
2214.00,0.0012
2213.00,0.0011
2212.00,0.0011
2211.00,0.0011
2210.00,0.0011
2209.00,0.0011
2208.00,0.0010
2207.00,0.0010
2206.00,0.0010
2205.00,0.0010
2204.00,0.0010
2203.00,0.0010
2202.00,0.0010
2201.00,0.0010
2200.00,0.0009
2199.00,0.0008
2198.00,0.0008
2197.00,0.0007
2196.00,0.0007
2195.00,0.0008
2194.00,0.0008
2193.00,0.0009
2192.00,0.0010
2191.00,0.0011
2190.00,0.0012
2189.00,0.0012
2188.00,0.0013
2187.00,0.0014
2186.00,0.0013
2185.00,0.0012
2184.00,0.0009
2183.00,0.0007
2182.00,0.0006
2181.00,0.0006
2180.00,0.0008
2179.00,0.0009
2178.00,0.0009
2177.00,0.0007
2176.00,0.0006
2175.00,0.0005
2174.00,0.0006
2173.00,0.0009
2172.00,0.0011
2171.00,0.0013
2170.00,0.0016
2169.00,0.0017
2168.00,0.0017
2167.00,0.0016
2166.00,0.0015
2165.00,0.0016
2164.00,0.0018
2163.00,0.0019
2162.00,0.0015
2161.00,0.0006
2160.00,-0.0007
2159.00,-0.0019
2158.00,-0.0025
2157.00,-0.0025
2156.00,-0.0022
2155.00,-0.0019
2154.00,-0.0016
2153.00,-0.0013
2152.00,-0.0010
2151.00,-0.0008
2150.00,-0.0007
2149.00,-0.0008
2148.00,-0.0010
2147.00,-0.0011
2146.00,-0.0011
2145.00,-0.0011
2144.00,-0.0010
2143.00,-0.0010
2142.00,-0.0010
2141.00,-0.0010
2140.00,-0.0010
2139.00,-0.0010
2138.00,-0.0010
2137.00,-0.0011
2136.00,-0.0012
2135.00,-0.0014
2134.00,-0.0015
2133.00,-0.0014
2132.00,-0.0011
2131.00,-0.0009
2130.00,-0.0007
2129.00,-0.0006
2128.00,-0.0005
2127.00,-0.0004
2126.00,-0.0003
2125.00,-0.0003
2124.00,-0.0002
2123.00,-0.0001
2122.00,-0.0000
2121.00,0.0001
2120.00,0.0003
2119.00,0.0004
2118.00,0.0005
2117.00,0.0005
2116.00,0.0006
2115.00,0.0006
2114.00,0.0006
2113.00,0.0006
2112.00,0.0005
2111.00,0.0005
2110.00,0.0006
2109.00,0.0006
2108.00,0.0007
2107.00,0.0007
2106.00,0.0008
2105.00,0.0007
2104.00,0.0007
2103.00,0.0008
2102.00,0.0008
2101.00,0.0007
2100.00,0.0007
2099.00,0.0006
2098.00,0.0005
2097.00,0.0004
2096.00,0.0002
2095.00,0.0002
2094.00,0.0001
2093.00,0.0002
2092.00,0.0002
2091.00,0.0003
2090.00,0.0004
2089.00,0.0005
2088.00,0.0006
2087.00,0.0006
2086.00,0.0005
2085.00,0.0005
2084.00,0.0005
2083.00,0.0006
2082.00,0.0007
2081.00,0.0008
2080.00,0.0009
2079.00,0.0009
2078.00,0.0009
2077.00,0.0009
2076.00,0.0008
2075.00,0.0007
2074.00,0.0006
2073.00,0.0006
2072.00,0.0006
2071.00,0.0005
2070.00,0.0005
2069.00,0.0005
2068.00,0.0005
2067.00,0.0005
2066.00,0.0006
2065.00,0.0007
2064.00,0.0007
2063.00,0.0007
2062.00,0.0007
2061.00,0.0006
2060.00,0.0004
2059.00,0.0003
2058.00,0.0003
2057.00,0.0003
2056.00,0.0002
2055.00,0.0003
2054.00,0.0006
2053.00,0.0011
2052.00,0.0014
2051.00,0.0015
2050.00,0.0012
2049.00,0.0008
2048.00,0.0005
2047.00,0.0004
2046.00,0.0003
2045.00,0.0003
2044.00,0.0002
2043.00,0.0002
2042.00,0.0003
2041.00,0.0005
2040.00,0.0006
2039.00,0.0007
2038.00,0.0006
2037.00,0.0006
2036.00,0.0006
2035.00,0.0005
2034.00,0.0005
2033.00,0.0005
2032.00,0.0005
2031.00,0.0005
2030.00,0.0004
2029.00,0.0004
2028.00,0.0004
2027.00,0.0004
2026.00,0.0005
2025.00,0.0004
2024.00,0.0002
2023.00,0.0000
2022.00,-0.0002
2021.00,-0.0003
2020.00,-0.0002
2019.00,-0.0001
2018.00,0.0001
2017.00,0.0002
2016.00,0.0002
2015.00,0.0002
2014.00,0.0001
2013.00,0.0001
2012.00,0.0002
2011.00,0.0003
2010.00,0.0003
2009.00,0.0002
2008.00,-0.0000
2007.00,-0.0003
2006.00,-0.0005
2005.00,-0.0007
2004.00,-0.0007
2003.00,-0.0005
2002.00,-0.0002
2001.00,0.0000
2000.00,0.0002
1999.00,0.0004
1998.00,0.0004
1997.00,0.0004
1996.00,0.0005
1995.00,0.0005
1994.00,0.0006
1993.00,0.0006
1992.00,0.0007
1991.00,0.0007
1990.00,0.0007
1989.00,0.0008
1988.00,0.0009
1987.00,0.0010
1986.00,0.0012
1985.00,0.0014
1984.00,0.0015
1983.00,0.0018
1982.00,0.0020
1981.00,0.0022
1980.00,0.0020
1979.00,0.0016
1978.00,0.0010
1977.00,0.0005
1976.00,0.0002
1975.00,0.0001
1974.00,-0.0000
1973.00,-0.0001
1972.00,-0.0002
1971.00,-0.0003
1970.00,-0.0003
1969.00,-0.0002
1968.00,0.0000
1967.00,0.0003
1966.00,0.0005
1965.00,0.0006
1964.00,0.0007
1963.00,0.0006
1962.00,0.0006
1961.00,0.0005
1960.00,0.0004
1959.00,0.0004
1958.00,0.0005
1957.00,0.0008
1956.00,0.0010
1955.00,0.0013
1954.00,0.0014
1953.00,0.0015
1952.00,0.0016
1951.00,0.0017
1950.00,0.0018
1949.00,0.0019
1948.00,0.0020
1947.00,0.0021
1946.00,0.0023
1945.00,0.0024
1944.00,0.0024
1943.00,0.0024
1942.00,0.0024
1941.00,0.0023
1940.00,0.0022
1939.00,0.0021
1938.00,0.0019
1937.00,0.0018
1936.00,0.0017
1935.00,0.0016
1934.00,0.0015
1933.00,0.0014
1932.00,0.0012
1931.00,0.0011
1930.00,0.0009
1929.00,0.0009
1928.00,0.0008
1927.00,0.0007
1926.00,0.0006
1925.00,0.0006
1924.00,0.0006
1923.00,0.0006
1922.00,0.0007
1921.00,0.0007
1920.00,0.0006
1919.00,0.0006
1918.00,0.0006
1917.00,0.0006
1916.00,0.0006
1915.00,0.0005
1914.00,0.0005
1913.00,0.0004
1912.00,0.0004
1911.00,0.0004
1910.00,0.0004
1909.00,0.0004
1908.00,0.0005
1907.00,0.0005
1906.00,0.0006
1905.00,0.0006
1904.00,0.0007
1903.00,0.0007
1902.00,0.0008
1901.00,0.0008
1900.00,0.0008
1899.00,0.0008
1898.00,0.0009
1897.00,0.0009
1896.00,0.0010
1895.00,0.0011
1894.00,0.0012
1893.00,0.0013
1892.00,0.0014
1891.00,0.0014
1890.00,0.0015
1889.00,0.0016
1888.00,0.0017
1887.00,0.0017
1886.00,0.0018
1885.00,0.0018
1884.00,0.0018
1883.00,0.0019
1882.00,0.0020
1881.00,0.0021
1880.00,0.0021
1879.00,0.0022
1878.00,0.0023
1877.00,0.0024
1876.00,0.0024
1875.00,0.0025
1874.00,0.0025
1873.00,0.0026
1872.00,0.0026
1871.00,0.0026
1870.00,0.0027
1869.00,0.0027
1868.00,0.0026
1867.00,0.0025
1866.00,0.0024
1865.00,0.0023
1864.00,0.0021
1863.00,0.0020
1862.00,0.0019
1861.00,0.0018
1860.00,0.0017
1859.00,0.0016
1858.00,0.0015
1857.00,0.0014
1856.00,0.0013
1855.00,0.0012
1854.00,0.0011
1853.00,0.0010
1852.00,0.0010
1851.00,0.0010
1850.00,0.0010
1849.00,0.0009
1848.00,0.0009
1847.00,0.0009
1846.00,0.0009
1845.00,0.0008
1844.00,0.0008
1843.00,0.0008
1842.00,0.0007
1841.00,0.0007
1840.00,0.0007
1839.00,0.0006
1838.00,0.0006
1837.00,0.0006
1836.00,0.0007
1835.00,0.0008
1834.00,0.0008
1833.00,0.0008
1832.00,0.0009
1831.00,0.0009
1830.00,0.0010
1829.00,0.0012
1828.00,0.0013
1827.00,0.0013
1826.00,0.0014
1825.00,0.0015
1824.00,0.0016
1823.00,0.0016
1822.00,0.0017
1821.00,0.0017
1820.00,0.0016
1819.00,0.0016
1818.00,0.0016
1817.00,0.0017
1816.00,0.0018
1815.00,0.0020
1814.00,0.0021
1813.00,0.0022
1812.00,0.0023
1811.00,0.0024
1810.00,0.0025
1809.00,0.0026
1808.00,0.0027
1807.00,0.0028
1806.00,0.0029
1805.00,0.0030
1804.00,0.0031
1803.00,0.0031
1802.00,0.0031
1801.00,0.0031
1800.00,0.0031
1799.00,0.0031
1798.00,0.0030
1797.00,0.0029
1796.00,0.0028
1795.00,0.0027
1794.00,0.0025
1793.00,0.0024
1792.00,0.0023
1791.00,0.0021
1790.00,0.0020
1789.00,0.0019
1788.00,0.0018
1787.00,0.0018
1786.00,0.0018
1785.00,0.0018
1784.00,0.0018
1783.00,0.0017
1782.00,0.0017
1781.00,0.0017
1780.00,0.0017
1779.00,0.0018
1778.00,0.0018
1777.00,0.0018
1776.00,0.0019
1775.00,0.0019
1774.00,0.0020
1773.00,0.0020
1772.00,0.0020
1771.00,0.0021
1770.00,0.0021
1769.00,0.0021
1768.00,0.0021
1767.00,0.0021
1766.00,0.0021
1765.00,0.0021
1764.00,0.0022
1763.00,0.0022
1762.00,0.0023
1761.00,0.0024
1760.00,0.0025
1759.00,0.0026
1758.00,0.0027
1757.00,0.0028
1756.00,0.0029
1755.00,0.0029
1754.00,0.0030
1753.00,0.0031
1752.00,0.0032
1751.00,0.0034
1750.00,0.0035
1749.00,0.0036
1748.00,0.0037
1747.00,0.0037
1746.00,0.0037
1745.00,0.0038
1744.00,0.0038
1743.00,0.0039
1742.00,0.0039
1741.00,0.0039
1740.00,0.0039
1739.00,0.0038
1738.00,0.0038
1737.00,0.0039
1736.00,0.0039
1735.00,0.0038
1734.00,0.0037
1733.00,0.0036
1732.00,0.0035
1731.00,0.0034
1730.00,0.0034
1729.00,0.0034
1728.00,0.0034
1727.00,0.0033
1726.00,0.0033
1725.00,0.0032
1724.00,0.0032
1723.00,0.0031
1722.00,0.0031
1721.00,0.0031
1720.00,0.0031
1719.00,0.0030
1718.00,0.0030
1717.00,0.0030
1716.00,0.0029
1715.00,0.0028
1714.00,0.0028
1713.00,0.0028
1712.00,0.0028
1711.00,0.0028
1710.00,0.0027
1709.00,0.0027
1708.00,0.0027
1707.00,0.0027
1706.00,0.0027
1705.00,0.0027
1704.00,0.0027
1703.00,0.0027
1702.00,0.0027
1701.00,0.0027
1700.00,0.0026
1699.00,0.0026
1698.00,0.0026
1697.00,0.0026
1696.00,0.0026
1695.00,0.0026
1694.00,0.0027
1693.00,0.0027
1692.00,0.0028
1691.00,0.0028
1690.00,0.0029
1689.00,0.0030
1688.00,0.0030
1687.00,0.0031
1686.00,0.0032
1685.00,0.0032
1684.00,0.0033
1683.00,0.0033
1682.00,0.0033
1681.00,0.0033
1680.00,0.0033
1679.00,0.0034
1678.00,0.0034
1677.00,0.0034
1676.00,0.0035
1675.00,0.0035
1674.00,0.0035
1673.00,0.0035
1672.00,0.0036
1671.00,0.0036
1670.00,0.0036
1669.00,0.0036
1668.00,0.0036
1667.00,0.0036
1666.00,0.0036
1665.00,0.0036
1664.00,0.0036
1663.00,0.0035
1662.00,0.0035
1661.00,0.0034
1660.00,0.0034
1659.00,0.0034
1658.00,0.0033
1657.00,0.0033
1656.00,0.0033
1655.00,0.0032
1654.00,0.0031
1653.00,0.0030
1652.00,0.0029
1651.00,0.0029
1650.00,0.0029
1649.00,0.0029
1648.00,0.0029
1647.00,0.0028
1646.00,0.0027
1645.00,0.0027
1644.00,0.0027
1643.00,0.0027
1642.00,0.0026
1641.00,0.0026
1640.00,0.0026
1639.00,0.0026
1638.00,0.0026
1637.00,0.0026
1636.00,0.0026
1635.00,0.0026
1634.00,0.0025
1633.00,0.0025
1632.00,0.0025
1631.00,0.0026
1630.00,0.0026
1629.00,0.0026
1628.00,0.0026
1627.00,0.0026
1626.00,0.0026
1625.00,0.0027
1624.00,0.0027
1623.00,0.0027
1622.00,0.0028
1621.00,0.0028
1620.00,0.0029
1619.00,0.0029
1618.00,0.0030
1617.00,0.0031
1616.00,0.0032
1615.00,0.0034
1614.00,0.0036
1613.00,0.0039
1612.00,0.0042
1611.00,0.0047
1610.00,0.0054
1609.00,0.0064
1608.00,0.0077
1607.00,0.0094
1606.00,0.0113
1605.00,0.0134
1604.00,0.0157
1603.00,0.0177
1602.00,0.0191
1601.00,0.0195
1600.00,0.0190
1599.00,0.0177
1598.00,0.0158
1597.00,0.0137
1596.00,0.0118
1595.00,0.0102
1594.00,0.0089
1593.00,0.0079
1592.00,0.0071
1591.00,0.0065
1590.00,0.0061
1589.00,0.0059
1588.00,0.0060
1587.00,0.0063
1586.00,0.0069
1585.00,0.0076
1584.00,0.0082
1583.00,0.0084
1582.00,0.0081
1581.00,0.0074
1580.00,0.0065
1579.00,0.0057
1578.00,0.0050
1577.00,0.0043
1576.00,0.0038
1575.00,0.0035
1574.00,0.0033
1573.00,0.0031
1572.00,0.0030
1571.00,0.0028
1570.00,0.0027
1569.00,0.0025
1568.00,0.0025
1567.00,0.0024
1566.00,0.0024
1565.00,0.0024
1564.00,0.0024
1563.00,0.0024
1562.00,0.0024
1561.00,0.0023
1560.00,0.0023
1559.00,0.0023
1558.00,0.0024
1557.00,0.0024
1556.00,0.0025
1555.00,0.0026
1554.00,0.0026
1553.00,0.0027
1552.00,0.0028
1551.00,0.0029
1550.00,0.0030
1549.00,0.0032
1548.00,0.0033
1547.00,0.0034
1546.00,0.0035
1545.00,0.0035
1544.00,0.0035
1543.00,0.0035
1542.00,0.0035
1541.00,0.0035
1540.00,0.0034
1539.00,0.0033
1538.00,0.0033
1537.00,0.0032
1536.00,0.0032
1535.00,0.0031
1534.00,0.0030
1533.00,0.0029
1532.00,0.0028
1531.00,0.0027
1530.00,0.0026
1529.00,0.0026
1528.00,0.0025
1527.00,0.0024
1526.00,0.0024
1525.00,0.0023
1524.00,0.0023
1523.00,0.0024
1522.00,0.0024
1521.00,0.0024
1520.00,0.0024
1519.00,0.0024
1518.00,0.0024
1517.00,0.0024
1516.00,0.0025
1515.00,0.0026
1514.00,0.0027
1513.00,0.0028
1512.00,0.0029
1511.00,0.0029
1510.00,0.0030
1509.00,0.0031
1508.00,0.0032
1507.00,0.0034
1506.00,0.0037
1505.00,0.0041
1504.00,0.0045
1503.00,0.0051
1502.00,0.0059
1501.00,0.0069
1500.00,0.0085
1499.00,0.0109
1498.00,0.0148
1497.00,0.0208
1496.00,0.0286
1495.00,0.0368
1494.00,0.0437
1493.00,0.0480
1492.00,0.0487
1491.00,0.0449
1490.00,0.0376
1489.00,0.0296
1488.00,0.0232
1487.00,0.0186
1486.00,0.0153
1485.00,0.0129
1484.00,0.0111
1483.00,0.0096
1482.00,0.0084
1481.00,0.0074
1480.00,0.0068
1479.00,0.0063
1478.00,0.0060
1477.00,0.0057
1476.00,0.0055
1475.00,0.0054
1474.00,0.0053
1473.00,0.0052
1472.00,0.0052
1471.00,0.0053
1470.00,0.0053
1469.00,0.0054
1468.00,0.0056
1467.00,0.0057
1466.00,0.0059
1465.00,0.0061
1464.00,0.0064
1463.00,0.0068
1462.00,0.0073
1461.00,0.0081
1460.00,0.0091
1459.00,0.0108
1458.00,0.0141
1457.00,0.0200
1456.00,0.0276
1455.00,0.0351
1454.00,0.0415
1453.00,0.0465
1452.00,0.0491
1451.00,0.0489
1450.00,0.0464
1449.00,0.0427
1448.00,0.0387
1447.00,0.0350
1446.00,0.0321
1445.00,0.0298
1444.00,0.0275
1443.00,0.0253
1442.00,0.0233
1441.00,0.0214
1440.00,0.0199
1439.00,0.0185
1438.00,0.0170
1437.00,0.0153
1436.00,0.0134
1435.00,0.0118
1434.00,0.0107
1433.00,0.0099
1432.00,0.0090
1431.00,0.0082
1430.00,0.0075
1429.00,0.0069
1428.00,0.0065
1427.00,0.0061
1426.00,0.0059
1425.00,0.0056
1424.00,0.0054
1423.00,0.0053
1422.00,0.0052
1421.00,0.0051
1420.00,0.0050
1419.00,0.0048
1418.00,0.0047
1417.00,0.0046
1416.00,0.0046
1415.00,0.0045
1414.00,0.0045
1413.00,0.0044
1412.00,0.0044
1411.00,0.0043
1410.00,0.0043
1409.00,0.0043
1408.00,0.0043
1407.00,0.0042
1406.00,0.0042
1405.00,0.0042
1404.00,0.0042
1403.00,0.0042
1402.00,0.0042
1401.00,0.0042
1400.00,0.0043
1399.00,0.0043
1398.00,0.0044
1397.00,0.0044
1396.00,0.0045
1395.00,0.0047
1394.00,0.0048
1393.00,0.0050
1392.00,0.0053
1391.00,0.0056
1390.00,0.0059
1389.00,0.0062
1388.00,0.0065
1387.00,0.0069
1386.00,0.0072
1385.00,0.0076
1384.00,0.0080
1383.00,0.0083
1382.00,0.0087
1381.00,0.0090
1380.00,0.0093
1379.00,0.0097
1378.00,0.0100
1377.00,0.0103
1376.00,0.0106
1375.00,0.0108
1374.00,0.0110
1373.00,0.0111
1372.00,0.0111
1371.00,0.0111
1370.00,0.0111
1369.00,0.0111
1368.00,0.0110
1367.00,0.0109
1366.00,0.0109
1365.00,0.0108
1364.00,0.0107
1363.00,0.0106
1362.00,0.0105
1361.00,0.0103
1360.00,0.0102
1359.00,0.0100
1358.00,0.0099
1357.00,0.0098
1356.00,0.0096
1355.00,0.0095
1354.00,0.0095
1353.00,0.0094
1352.00,0.0094
1351.00,0.0094
1350.00,0.0094
1349.00,0.0094
1348.00,0.0093
1347.00,0.0092
1346.00,0.0091
1345.00,0.0090
1344.00,0.0088
1343.00,0.0087
1342.00,0.0085
1341.00,0.0084
1340.00,0.0083
1339.00,0.0082
1338.00,0.0082
1337.00,0.0082
1336.00,0.0083
1335.00,0.0084
1334.00,0.0086
1333.00,0.0089
1332.00,0.0091
1331.00,0.0093
1330.00,0.0095
1329.00,0.0096
1328.00,0.0096
1327.00,0.0096
1326.00,0.0095
1325.00,0.0094
1324.00,0.0092
1323.00,0.0091
1322.00,0.0090
1321.00,0.0089
1320.00,0.0089
1319.00,0.0089
1318.00,0.0089
1317.00,0.0090
1316.00,0.0091
1315.00,0.0092
1314.00,0.0093
1313.00,0.0094
1312.00,0.0094
1311.00,0.0094
1310.00,0.0093
1309.00,0.0092
1308.00,0.0091
1307.00,0.0089
1306.00,0.0087
1305.00,0.0086
1304.00,0.0085
1303.00,0.0083
1302.00,0.0082
1301.00,0.0080
1300.00,0.0079
1299.00,0.0078
1298.00,0.0077
1297.00,0.0076
1296.00,0.0076
1295.00,0.0076
1294.00,0.0076
1293.00,0.0076
1292.00,0.0075
1291.00,0.0075
1290.00,0.0074
1289.00,0.0073
1288.00,0.0072
1287.00,0.0071
1286.00,0.0071
1285.00,0.0070
1284.00,0.0070
1283.00,0.0070
1282.00,0.0070
1281.00,0.0070
1280.00,0.0069
1279.00,0.0068
1278.00,0.0067
1277.00,0.0065
1276.00,0.0064
1275.00,0.0062
1274.00,0.0061
1273.00,0.0059
1272.00,0.0058
1271.00,0.0057
1270.00,0.0056
1269.00,0.0055
1268.00,0.0054
1267.00,0.0053
1266.00,0.0053
1265.00,0.0052
1264.00,0.0052
1263.00,0.0051
1262.00,0.0050
1261.00,0.0050
1260.00,0.0050
1259.00,0.0050
1258.00,0.0050
1257.00,0.0050
1256.00,0.0051
1255.00,0.0051
1254.00,0.0051
1253.00,0.0051
1252.00,0.0051
1251.00,0.0051
1250.00,0.0052
1249.00,0.0052
1248.00,0.0052
1247.00,0.0052
1246.00,0.0053
1245.00,0.0053
1244.00,0.0053
1243.00,0.0053
1242.00,0.0052
1241.00,0.0052
1240.00,0.0052
1239.00,0.0052
1238.00,0.0052
1237.00,0.0052
1236.00,0.0052
1235.00,0.0052
1234.00,0.0052
1233.00,0.0052
1232.00,0.0052
1231.00,0.0052
1230.00,0.0052
1229.00,0.0053
1228.00,0.0053
1227.00,0.0053
1226.00,0.0054
1225.00,0.0054
1224.00,0.0054
1223.00,0.0054
1222.00,0.0054
1221.00,0.0054
1220.00,0.0055
1219.00,0.0055
1218.00,0.0055
1217.00,0.0056
1216.00,0.0056
1215.00,0.0057
1214.00,0.0057
1213.00,0.0058
1212.00,0.0059
1211.00,0.0060
1210.00,0.0061
1209.00,0.0062
1208.00,0.0064
1207.00,0.0065
1206.00,0.0067
1205.00,0.0069
1204.00,0.0071
1203.00,0.0073
1202.00,0.0075
1201.00,0.0077
1200.00,0.0079
1199.00,0.0080
1198.00,0.0081
1197.00,0.0082
1196.00,0.0083
1195.00,0.0083
1194.00,0.0084
1193.00,0.0084
1192.00,0.0084
1191.00,0.0085
1190.00,0.0085
1189.00,0.0087
1188.00,0.0089
1187.00,0.0092
1186.00,0.0096
1185.00,0.0101
1184.00,0.0106
1183.00,0.0110
1182.00,0.0114
1181.00,0.0114
1180.00,0.0112
1179.00,0.0107
1178.00,0.0100
1177.00,0.0092
1176.00,0.0085
1175.00,0.0080
1174.00,0.0076
1173.00,0.0073
1172.00,0.0071
1171.00,0.0069
1170.00,0.0068
1169.00,0.0067
1168.00,0.0067
1167.00,0.0066
1166.00,0.0067
1165.00,0.0067
1164.00,0.0068
1163.00,0.0070
1162.00,0.0073
1161.00,0.0077
1160.00,0.0082
1159.00,0.0089
1158.00,0.0096
1157.00,0.0104
1156.00,0.0110
1155.00,0.0114
1154.00,0.0114
1153.00,0.0110
1152.00,0.0103
1151.00,0.0094
1150.00,0.0085
1149.00,0.0077
1148.00,0.0071
1147.00,0.0066
1146.00,0.0062
1145.00,0.0059
1144.00,0.0057
1143.00,0.0055
1142.00,0.0053
1141.00,0.0051
1140.00,0.0050
1139.00,0.0050
1138.00,0.0049
1137.00,0.0049
1136.00,0.0048
1135.00,0.0048
1134.00,0.0048
1133.00,0.0048
1132.00,0.0048
1131.00,0.0048
1130.00,0.0048
1129.00,0.0048
1128.00,0.0049
1127.00,0.0049
1126.00,0.0050
1125.00,0.0051
1124.00,0.0051
1123.00,0.0052
1122.00,0.0052
1121.00,0.0053
1120.00,0.0055
1119.00,0.0057
1118.00,0.0059
1117.00,0.0062
1116.00,0.0064
1115.00,0.0065
1114.00,0.0066
1113.00,0.0067
1112.00,0.0068
1111.00,0.0068
1110.00,0.0067
1109.00,0.0067
1108.00,0.0066
1107.00,0.0066
1106.00,0.0066
1105.00,0.0066
1104.00,0.0066
1103.00,0.0066
1102.00,0.0066
1101.00,0.0067
1100.00,0.0068
1099.00,0.0069
1098.00,0.0070
1097.00,0.0071
1096.00,0.0072
1095.00,0.0072
1094.00,0.0073
1093.00,0.0074
1092.00,0.0075
1091.00,0.0077
1090.00,0.0079
1089.00,0.0081
1088.00,0.0082
1087.00,0.0084
1086.00,0.0086
1085.00,0.0089
1084.00,0.0092
1083.00,0.0095
1082.00,0.0099
1081.00,0.0103
1080.00,0.0107
1079.00,0.0111
1078.00,0.0115
1077.00,0.0119
1076.00,0.0124
1075.00,0.0130
1074.00,0.0136
1073.00,0.0143
1072.00,0.0149
1071.00,0.0154
1070.00,0.0157
1069.00,0.0159
1068.00,0.0158
1067.00,0.0155
1066.00,0.0150
1065.00,0.0145
1064.00,0.0139
1063.00,0.0133
1062.00,0.0127
1061.00,0.0122
1060.00,0.0117
1059.00,0.0113
1058.00,0.0109
1057.00,0.0106
1056.00,0.0103
1055.00,0.0101
1054.00,0.0098
1053.00,0.0095
1052.00,0.0093
1051.00,0.0091
1050.00,0.0089
1049.00,0.0088
1048.00,0.0086
1047.00,0.0085
1046.00,0.0084
1045.00,0.0083
1044.00,0.0083
1043.00,0.0083
1042.00,0.0084
1041.00,0.0085
1040.00,0.0088
1039.00,0.0092
1038.00,0.0098
1037.00,0.0107
1036.00,0.0121
1035.00,0.0139
1034.00,0.0161
1033.00,0.0186
1032.00,0.0211
1031.00,0.0234
1030.00,0.0253
1029.00,0.0266
1028.00,0.0272
1027.00,0.0268
1026.00,0.0256
1025.00,0.0239
1024.00,0.0220
1023.00,0.0203
1022.00,0.0187
1021.00,0.0174
1020.00,0.0163
1019.00,0.0154
1018.00,0.0146
1017.00,0.0139
1016.00,0.0133
1015.00,0.0128
1014.00,0.0124
1013.00,0.0120
1012.00,0.0117
1011.00,0.0114
1010.00,0.0112
1009.00,0.0111
1008.00,0.0111
1007.00,0.0112
1006.00,0.0114
1005.00,0.0117
1004.00,0.0120
1003.00,0.0121
1002.00,0.0118
1001.00,0.0113
1000.00,0.0107
999.00,0.0100
998.00,0.0095
997.00,0.0091
996.00,0.0088
995.00,0.0087
994.00,0.0086
993.00,0.0086
992.00,0.0086
991.00,0.0087
990.00,0.0088
989.00,0.0090
988.00,0.0092
987.00,0.0094
986.00,0.0097
985.00,0.0100
984.00,0.0103
983.00,0.0106
982.00,0.0108
981.00,0.0109
980.00,0.0109
979.00,0.0108
978.00,0.0107
977.00,0.0105
976.00,0.0103
975.00,0.0101
974.00,0.0099
973.00,0.0098
972.00,0.0099
971.00,0.0100
970.00,0.0103
969.00,0.0106
968.00,0.0109
967.00,0.0113
966.00,0.0116
965.00,0.0118
964.00,0.0118
963.00,0.0117
962.00,0.0115
961.00,0.0110
960.00,0.0105
959.00,0.0100
958.00,0.0096
957.00,0.0092
956.00,0.0089
955.00,0.0088
954.00,0.0087
953.00,0.0086
952.00,0.0086
951.00,0.0087
950.00,0.0088
949.00,0.0089
948.00,0.0090
947.00,0.0092
946.00,0.0093
945.00,0.0094
944.00,0.0095
943.00,0.0094
942.00,0.0094
941.00,0.0092
940.00,0.0091
939.00,0.0089
938.00,0.0087
937.00,0.0084
936.00,0.0081
935.00,0.0079
934.00,0.0076
933.00,0.0073
932.00,0.0071
931.00,0.0069
930.00,0.0068
929.00,0.0068
928.00,0.0068
927.00,0.0068
926.00,0.0069
925.00,0.0070
924.00,0.0071
923.00,0.0073
922.00,0.0075
921.00,0.0077
920.00,0.0080
919.00,0.0084
918.00,0.0088
917.00,0.0094
916.00,0.0101
915.00,0.0109
914.00,0.0118
913.00,0.0129
912.00,0.0141
911.00,0.0154
910.00,0.0166
909.00,0.0177
908.00,0.0185
907.00,0.0190
906.00,0.0190
905.00,0.0187
904.00,0.0179
903.00,0.0169
902.00,0.0156
901.00,0.0142
900.00,0.0128
899.00,0.0115
898.00,0.0104
897.00,0.0094
896.00,0.0087
895.00,0.0081
894.00,0.0077
893.00,0.0073
892.00,0.0070
891.00,0.0067
890.00,0.0065
889.00,0.0063
888.00,0.0061
887.00,0.0060
886.00,0.0059
885.00,0.0057
884.00,0.0056
883.00,0.0055
882.00,0.0054
881.00,0.0053
880.00,0.0053
879.00,0.0052
878.00,0.0052
877.00,0.0052
876.00,0.0051
875.00,0.0051
874.00,0.0050
873.00,0.0049
872.00,0.0048
871.00,0.0048
870.00,0.0047
869.00,0.0047
868.00,0.0047
867.00,0.0047
866.00,0.0047
865.00,0.0047
864.00,0.0047
863.00,0.0048
862.00,0.0048
861.00,0.0047
860.00,0.0047
859.00,0.0048
858.00,0.0048
857.00,0.0049
856.00,0.0049
855.00,0.0051
854.00,0.0052
853.00,0.0054
852.00,0.0057
851.00,0.0061
850.00,0.0066
849.00,0.0071
848.00,0.0077
847.00,0.0082
846.00,0.0088
845.00,0.0092
844.00,0.0096
843.00,0.0098
842.00,0.0100
841.00,0.0099
840.00,0.0098
839.00,0.0094
838.00,0.0090
837.00,0.0084
836.00,0.0077
835.00,0.0071
834.00,0.0065
833.00,0.0060
832.00,0.0056
831.00,0.0053
830.00,0.0050
829.00,0.0048
828.00,0.0047
827.00,0.0047
826.00,0.0046
825.00,0.0046
824.00,0.0045
823.00,0.0044
822.00,0.0044
821.00,0.0043
820.00,0.0044
819.00,0.0044
818.00,0.0045
817.00,0.0045
816.00,0.0045
815.00,0.0046
814.00,0.0046
813.00,0.0046
812.00,0.0046
811.00,0.0046
810.00,0.0046
809.00,0.0047
808.00,0.0047
807.00,0.0048
806.00,0.0049
805.00,0.0050
804.00,0.0050
803.00,0.0051
802.00,0.0053
801.00,0.0054
800.00,0.0056
799.00,0.0058
798.00,0.0061
797.00,0.0063
796.00,0.0066
795.00,0.0069
794.00,0.0072
793.00,0.0077
792.00,0.0082
791.00,0.0087
790.00,0.0092
789.00,0.0098
788.00,0.0103
787.00,0.0109
786.00,0.0116
785.00,0.0123
784.00,0.0131
783.00,0.0139
782.00,0.0148
781.00,0.0159
780.00,0.0171
779.00,0.0185
778.00,0.0202
777.00,0.0220
776.00,0.0241
775.00,0.0263
774.00,0.0288
773.00,0.0314
772.00,0.0342
771.00,0.0372
770.00,0.0404
769.00,0.0436
768.00,0.0469
767.00,0.0501
766.00,0.0533
765.00,0.0564
764.00,0.0595
763.00,0.0627
762.00,0.0659
761.00,0.0692
760.00,0.0723
759.00,0.0752
758.00,0.0777
757.00,0.0796
756.00,0.0809
755.00,0.0815
754.00,0.0816
753.00,0.0814
752.00,0.0811
751.00,0.0810
750.00,0.0809
749.00,0.0808
748.00,0.0804
747.00,0.0792
746.00,0.0770
745.00,0.0737
744.00,0.0692
743.00,0.0640
742.00,0.0584
741.00,0.0530
740.00,0.0478
739.00,0.0430
738.00,0.0386
737.00,0.0345
736.00,0.0306
735.00,0.0270
734.00,0.0236
733.00,0.0205
732.00,0.0178
731.00,0.0156
730.00,0.0139
729.00,0.0126
728.00,0.0116
727.00,0.0109
726.00,0.0104
725.00,0.0100
724.00,0.0097
723.00,0.0096
722.00,0.0096
721.00,0.0096
720.00,0.0098
719.00,0.0100
718.00,0.0103
717.00,0.0108
716.00,0.0115
715.00,0.0125
714.00,0.0138
713.00,0.0156
712.00,0.0183
711.00,0.0219
710.00,0.0269
709.00,0.0334
708.00,0.0416
707.00,0.0518
706.00,0.0639
705.00,0.0781
704.00,0.0943
703.00,0.1124
702.00,0.1320
701.00,0.1529
700.00,0.1745
699.00,0.1964
698.00,0.2178
697.00,0.2373
696.00,0.2517
695.00,0.2578
694.00,0.2528
693.00,0.2365
692.00,0.2122
691.00,0.1849
690.00,0.1588
689.00,0.1361
688.00,0.1174
687.00,0.1025
686.00,0.0908
685.00,0.0815
684.00,0.0739
683.00,0.0676
682.00,0.0622
681.00,0.0576
680.00,0.0536
679.00,0.0501
678.00,0.0473
677.00,0.0449
676.00,0.0428
675.00,0.0410
674.00,0.0393
673.00,0.0378
672.00,0.0364
671.00,0.0352
670.00,0.0341
669.00,0.0329
668.00,0.0314
667.00,0.0301
666.00,0.0291
665.00,0.0282
664.00,0.0272
663.00,0.0261
662.00,0.0250
661.00,0.0239
660.00,0.0228
659.00,0.0217
658.00,0.0208
657.00,0.0199
656.00,0.0191
655.00,0.0184
654.00,0.0177
653.00,0.0171
652.00,0.0165
651.00,0.0159
650.00,0.0153
649.00,0.0148
648.00,0.0144
647.00,0.0140
646.00,0.0137
645.00,0.0134
644.00,0.0132
643.00,0.0130
642.00,0.0129
641.00,0.0128
640.00,0.0129
639.00,0.0131
638.00,0.0134
637.00,0.0137
636.00,0.0141
635.00,0.0145
634.00,0.0148
633.00,0.0152
632.00,0.0155
631.00,0.0158
630.00,0.0160
629.00,0.0163
628.00,0.0166
627.00,0.0168
626.00,0.0170
625.00,0.0171
624.00,0.0173
623.00,0.0176
622.00,0.0179
621.00,0.0182
620.00,0.0181
619.00,0.0177
618.00,0.0172
617.00,0.0166
616.00,0.0161
615.00,0.0158
614.00,0.0155
613.00,0.0152
612.00,0.0151
611.00,0.0150
610.00,0.0150
609.00,0.0148
608.00,0.0145
607.00,0.0142
606.00,0.0140
605.00,0.0139
604.00,0.0140
603.00,0.0141
602.00,0.0143
601.00,0.0144
600.00,0.0146
599.00,0.0147
598.00,0.0148
597.00,0.0150
596.00,0.0152
595.00,0.0155
594.00,0.0158
593.00,0.0160
592.00,0.0162
591.00,0.0165
590.00,0.0168
589.00,0.0170
588.00,0.0173
587.00,0.0175
586.00,0.0178
585.00,0.0181
584.00,0.0185
583.00,0.0190
582.00,0.0196
581.00,0.0202
580.00,0.0208
579.00,0.0214
578.00,0.0223
577.00,0.0234
576.00,0.0246
575.00,0.0258
574.00,0.0270
573.00,0.0281
572.00,0.0292
571.00,0.0303
570.00,0.0315
569.00,0.0327
568.00,0.0338
567.00,0.0349
566.00,0.0360
565.00,0.0370
564.00,0.0380
563.00,0.0392
562.00,0.0405
561.00,0.0417
560.00,0.0428
559.00,0.0439
558.00,0.0450
557.00,0.0463
556.00,0.0476
555.00,0.0489
554.00,0.0502
553.00,0.0515
552.00,0.0529
551.00,0.0546
550.00,0.0564
549.00,0.0584
548.00,0.0607
547.00,0.0632
546.00,0.0657
545.00,0.0684
544.00,0.0712
543.00,0.0741
542.00,0.0768
541.00,0.0793
540.00,0.0814
539.00,0.0829
538.00,0.0835
537.00,0.0832
536.00,0.0818
535.00,0.0794
534.00,0.0762
533.00,0.0724
532.00,0.0682
531.00,0.0639
530.00,0.0597
529.00,0.0558
528.00,0.0522
527.00,0.0488
526.00,0.0455
525.00,0.0426
524.00,0.0400
523.00,0.0377
522.00,0.0358
521.00,0.0341
520.00,0.0326
519.00,0.0311
518.00,0.0298
517.00,0.0287
516.00,0.0279
515.00,0.0272
514.00,0.0265
513.00,0.0257
512.00,0.0250
511.00,0.0242
510.00,0.0234
509.00,0.0226
508.00,0.0219
507.00,0.0212
506.00,0.0206
505.00,0.0201
504.00,0.0195
503.00,0.0188
502.00,0.0182
501.00,0.0177
500.00,0.0174
499.00,0.0172
498.00,0.0169
497.00,0.0167
496.00,0.0164
495.00,0.0162
494.00,0.0159
493.00,0.0157
492.00,0.0154
491.00,0.0151
490.00,0.0149
489.00,0.0146
488.00,0.0143
487.00,0.0141
486.00,0.0140
485.00,0.0140
484.00,0.0140
483.00,0.0140
482.00,0.0138
481.00,0.0137
480.00,0.0135
479.00,0.0133
478.00,0.0131
477.00,0.0129
476.00,0.0127
475.00,0.0126
474.00,0.0126
473.00,0.0127
472.00,0.0126
471.00,0.0125
470.00,0.0123
469.00,0.0121
468.00,0.0119
467.00,0.0119
466.00,0.0118
465.00,0.0118
464.00,0.0116
463.00,0.0113
462.00,0.0110
461.00,0.0108
460.00,0.0108
459.00,0.0108
458.00,0.0106
457.00,0.0104
456.00,0.0101
455.00,0.0100
454.00,0.0100
453.00,0.0103
452.00,0.0105
451.00,0.0107
450.00,0.0107
449.00,0.0107
448.00,0.0106
447.00,0.0106
446.00,0.0105
445.00,0.0103
444.00,0.0100
443.00,0.0097
442.00,0.0095
441.00,0.0094
440.00,0.0093
439.00,0.0093
438.00,0.0092
437.00,0.0093
436.00,0.0093
435.00,0.0093
434.00,0.0092
433.00,0.0092
432.00,0.0093
431.00,0.0094
430.00,0.0095
429.00,0.0095
428.00,0.0096
427.00,0.0099
426.00,0.0102
425.00,0.0104
424.00,0.0102
423.00,0.0096
422.00,0.0089
421.00,0.0083
420.00,0.0083
419.00,0.0086
418.00,0.0087
417.00,0.0084
416.00,0.0081
415.00,0.0081
414.00,0.0084
413.00,0.0086
412.00,0.0086
411.00,0.0086
410.00,0.0086
409.00,0.0086
408.00,0.0085
407.00,0.0087
406.00,0.0093
405.00,0.0101
404.00,0.0107
403.00,0.0109
402.00,0.0107
401.00,0.0098
400.00,0.0086
