Created as New Dataset,Sample 723 By YargerLab Date Thursday, June 26 2025
cm-1,A
4000.00,0.0020
3999.00,0.0020
3998.00,0.0020
3997.00,0.0020
3996.00,0.0020
3995.00,0.0019
3994.00,0.0019
3993.00,0.0019
3992.00,0.0019
3991.00,0.0019
3990.00,0.0019
3989.00,0.0019
3988.00,0.0019
3987.00,0.0019
3986.00,0.0019
3985.00,0.0019
3984.00,0.0019
3983.00,0.0019
3982.00,0.0019
3981.00,0.0019
3980.00,0.0019
3979.00,0.0019
3978.00,0.0019
3977.00,0.0019
3976.00,0.0019
3975.00,0.0019
3974.00,0.0019
3973.00,0.0019
3972.00,0.0019
3971.00,0.0019
3970.00,0.0019
3969.00,0.0019
3968.00,0.0019
3967.00,0.0019
3966.00,0.0019
3965.00,0.0019
3964.00,0.0019
3963.00,0.0019
3962.00,0.0019
3961.00,0.0019
3960.00,0.0019
3959.00,0.0019
3958.00,0.0019
3957.00,0.0019
3956.00,0.0019
3955.00,0.0019
3954.00,0.0019
3953.00,0.0019
3952.00,0.0019
3951.00,0.0019
3950.00,0.0019
3949.00,0.0019
3948.00,0.0019
3947.00,0.0019
3946.00,0.0018
3945.00,0.0019
3944.00,0.0019
3943.00,0.0019
3942.00,0.0019
3941.00,0.0019
3940.00,0.0019
3939.00,0.0019
3938.00,0.0019
3937.00,0.0019
3936.00,0.0019
3935.00,0.0019
3934.00,0.0019
3933.00,0.0019
3932.00,0.0019
3931.00,0.0019
3930.00,0.0018
3929.00,0.0018
3928.00,0.0018
3927.00,0.0018
3926.00,0.0019
3925.00,0.0019
3924.00,0.0019
3923.00,0.0018
3922.00,0.0018
3921.00,0.0018
3920.00,0.0018
3919.00,0.0018
3918.00,0.0018
3917.00,0.0018
3916.00,0.0019
3915.00,0.0019
3914.00,0.0019
3913.00,0.0019
3912.00,0.0019
3911.00,0.0019
3910.00,0.0019
3909.00,0.0019
3908.00,0.0019
3907.00,0.0019
3906.00,0.0019
3905.00,0.0019
3904.00,0.0019
3903.00,0.0018
3902.00,0.0018
3901.00,0.0018
3900.00,0.0018
3899.00,0.0018
3898.00,0.0018
3897.00,0.0018
3896.00,0.0018
3895.00,0.0018
3894.00,0.0019
3893.00,0.0019
3892.00,0.0019
3891.00,0.0019
3890.00,0.0019
3889.00,0.0019
3888.00,0.0019
3887.00,0.0018
3886.00,0.0018
3885.00,0.0018
3884.00,0.0018
3883.00,0.0018
3882.00,0.0018
3881.00,0.0018
3880.00,0.0018
3879.00,0.0018
3878.00,0.0018
3877.00,0.0018
3876.00,0.0018
3875.00,0.0018
3874.00,0.0018
3873.00,0.0018
3872.00,0.0018
3871.00,0.0018
3870.00,0.0018
3869.00,0.0018
3868.00,0.0018
3867.00,0.0018
3866.00,0.0018
3865.00,0.0018
3864.00,0.0018
3863.00,0.0018
3862.00,0.0018
3861.00,0.0018
3860.00,0.0018
3859.00,0.0018
3858.00,0.0018
3857.00,0.0018
3856.00,0.0017
3855.00,0.0017
3854.00,0.0017
3853.00,0.0017
3852.00,0.0017
3851.00,0.0017
3850.00,0.0017
3849.00,0.0017
3848.00,0.0018
3847.00,0.0018
3846.00,0.0018
3845.00,0.0019
3844.00,0.0019
3843.00,0.0018
3842.00,0.0018
3841.00,0.0018
3840.00,0.0018
3839.00,0.0018
3838.00,0.0018
3837.00,0.0018
3836.00,0.0018
3835.00,0.0018
3834.00,0.0018
3833.00,0.0018
3832.00,0.0018
3831.00,0.0018
3830.00,0.0019
3829.00,0.0019
3828.00,0.0019
3827.00,0.0019
3826.00,0.0019
3825.00,0.0019
3824.00,0.0019
3823.00,0.0019
3822.00,0.0019
3821.00,0.0019
3820.00,0.0019
3819.00,0.0019
3818.00,0.0018
3817.00,0.0018
3816.00,0.0018
3815.00,0.0018
3814.00,0.0018
3813.00,0.0018
3812.00,0.0018
3811.00,0.0018
3810.00,0.0019
3809.00,0.0019
3808.00,0.0019
3807.00,0.0019
3806.00,0.0019
3805.00,0.0019
3804.00,0.0018
3803.00,0.0018
3802.00,0.0018
3801.00,0.0018
3800.00,0.0019
3799.00,0.0018
3798.00,0.0018
3797.00,0.0018
3796.00,0.0018
3795.00,0.0019
3794.00,0.0019
3793.00,0.0019
3792.00,0.0019
3791.00,0.0019
3790.00,0.0019
3789.00,0.0019
3788.00,0.0019
3787.00,0.0019
3786.00,0.0019
3785.00,0.0018
3784.00,0.0019
3783.00,0.0019
3782.00,0.0019
3781.00,0.0019
3780.00,0.0019
3779.00,0.0019
3778.00,0.0019
3777.00,0.0019
3776.00,0.0019
3775.00,0.0019
3774.00,0.0019
3773.00,0.0020
3772.00,0.0020
3771.00,0.0019
3770.00,0.0019
3769.00,0.0019
3768.00,0.0019
3767.00,0.0019
3766.00,0.0019
3765.00,0.0019
3764.00,0.0019
3763.00,0.0019
3762.00,0.0019
3761.00,0.0018
3760.00,0.0018
3759.00,0.0018
3758.00,0.0018
3757.00,0.0019
3756.00,0.0019
3755.00,0.0019
3754.00,0.0019
3753.00,0.0019
3752.00,0.0019
3751.00,0.0019
3750.00,0.0018
3749.00,0.0018
3748.00,0.0018
3747.00,0.0017
3746.00,0.0017
3745.00,0.0017
3744.00,0.0017
3743.00,0.0017
3742.00,0.0017
3741.00,0.0018
3740.00,0.0018
3739.00,0.0018
3738.00,0.0018
3737.00,0.0017
3736.00,0.0017
3735.00,0.0017
3734.00,0.0017
3733.00,0.0017
3732.00,0.0018
3731.00,0.0018
3730.00,0.0018
3729.00,0.0018
3728.00,0.0018
3727.00,0.0017
3726.00,0.0018
3725.00,0.0018
3724.00,0.0018
3723.00,0.0018
3722.00,0.0018
3721.00,0.0018
3720.00,0.0018
3719.00,0.0018
3718.00,0.0018
3717.00,0.0018
3716.00,0.0018
3715.00,0.0018
3714.00,0.0018
3713.00,0.0018
3712.00,0.0018
3711.00,0.0017
3710.00,0.0017
3709.00,0.0017
3708.00,0.0017
3707.00,0.0017
3706.00,0.0018
3705.00,0.0018
3704.00,0.0018
3703.00,0.0018
3702.00,0.0018
3701.00,0.0018
3700.00,0.0017
3699.00,0.0017
3698.00,0.0017
3697.00,0.0017
3696.00,0.0017
3695.00,0.0017
3694.00,0.0017
3693.00,0.0017
3692.00,0.0017
3691.00,0.0017
3690.00,0.0016
3689.00,0.0016
3688.00,0.0016
3687.00,0.0016
3686.00,0.0016
3685.00,0.0016
3684.00,0.0016
3683.00,0.0016
3682.00,0.0016
3681.00,0.0016
3680.00,0.0015
3679.00,0.0015
3678.00,0.0014
3677.00,0.0014
3676.00,0.0013
3675.00,0.0012
3674.00,0.0012
3673.00,0.0011
3672.00,0.0011
3671.00,0.0011
3670.00,0.0011
3669.00,0.0011
3668.00,0.0011
3667.00,0.0011
3666.00,0.0011
3665.00,0.0012
3664.00,0.0012
3663.00,0.0012
3662.00,0.0012
3661.00,0.0012
3660.00,0.0012
3659.00,0.0012
3658.00,0.0012
3657.00,0.0012
3656.00,0.0012
3655.00,0.0012
3654.00,0.0012
3653.00,0.0011
3652.00,0.0011
3651.00,0.0012
3650.00,0.0012
3649.00,0.0013
3648.00,0.0013
3647.00,0.0013
3646.00,0.0013
3645.00,0.0013
3644.00,0.0013
3643.00,0.0013
3642.00,0.0013
3641.00,0.0013
3640.00,0.0013
3639.00,0.0013
3638.00,0.0013
3637.00,0.0013
3636.00,0.0013
3635.00,0.0014
3634.00,0.0014
3633.00,0.0015
3632.00,0.0015
3631.00,0.0015
3630.00,0.0015
3629.00,0.0015
3628.00,0.0015
3627.00,0.0015
3626.00,0.0015
3625.00,0.0016
3624.00,0.0016
3623.00,0.0016
3622.00,0.0017
3621.00,0.0017
3620.00,0.0017
3619.00,0.0017
3618.00,0.0017
3617.00,0.0017
3616.00,0.0017
3615.00,0.0017
3614.00,0.0016
3613.00,0.0016
3612.00,0.0016
3611.00,0.0017
3610.00,0.0017
3609.00,0.0017
3608.00,0.0017
3607.00,0.0016
3606.00,0.0016
3605.00,0.0016
3604.00,0.0017
3603.00,0.0017
3602.00,0.0017
3601.00,0.0017
3600.00,0.0017
3599.00,0.0017
3598.00,0.0017
3597.00,0.0017
3596.00,0.0017
3595.00,0.0017
3594.00,0.0017
3593.00,0.0017
3592.00,0.0017
3591.00,0.0017
3590.00,0.0017
3589.00,0.0018
3588.00,0.0018
3587.00,0.0018
3586.00,0.0017
3585.00,0.0017
3584.00,0.0017
3583.00,0.0017
3582.00,0.0017
3581.00,0.0017
3580.00,0.0017
3579.00,0.0017
3578.00,0.0017
3577.00,0.0017
3576.00,0.0017
3575.00,0.0017
3574.00,0.0017
3573.00,0.0017
3572.00,0.0017
3571.00,0.0017
3570.00,0.0017
3569.00,0.0017
3568.00,0.0017
3567.00,0.0017
3566.00,0.0016
3565.00,0.0016
3564.00,0.0016
3563.00,0.0016
3562.00,0.0016
3561.00,0.0016
3560.00,0.0017
3559.00,0.0017
3558.00,0.0017
3557.00,0.0017
3556.00,0.0017
3555.00,0.0017
3554.00,0.0017
3553.00,0.0017
3552.00,0.0017
3551.00,0.0017
3550.00,0.0018
3549.00,0.0018
3548.00,0.0018
3547.00,0.0018
3546.00,0.0018
3545.00,0.0018
3544.00,0.0018
3543.00,0.0018
3542.00,0.0018
3541.00,0.0018
3540.00,0.0018
3539.00,0.0018
3538.00,0.0018
3537.00,0.0018
3536.00,0.0018
3535.00,0.0018
3534.00,0.0018
3533.00,0.0017
3532.00,0.0018
3531.00,0.0018
3530.00,0.0018
3529.00,0.0018
3528.00,0.0018
3527.00,0.0018
3526.00,0.0018
3525.00,0.0018
3524.00,0.0018
3523.00,0.0018
3522.00,0.0018
3521.00,0.0018
3520.00,0.0018
3519.00,0.0018
3518.00,0.0018
3517.00,0.0019
3516.00,0.0019
3515.00,0.0019
3514.00,0.0019
3513.00,0.0019
3512.00,0.0019
3511.00,0.0019
3510.00,0.0019
3509.00,0.0019
3508.00,0.0019
3507.00,0.0019
3506.00,0.0019
3505.00,0.0019
3504.00,0.0019
3503.00,0.0019
3502.00,0.0019
3501.00,0.0020
3500.00,0.0020
3499.00,0.0019
3498.00,0.0019
3497.00,0.0019
3496.00,0.0019
3495.00,0.0019
3494.00,0.0019
3493.00,0.0019
3492.00,0.0019
3491.00,0.0019
3490.00,0.0019
3489.00,0.0019
3488.00,0.0020
3487.00,0.0020
3486.00,0.0019
3485.00,0.0019
3484.00,0.0019
3483.00,0.0019
3482.00,0.0019
3481.00,0.0019
3480.00,0.0020
3479.00,0.0020
3478.00,0.0020
3477.00,0.0020
3476.00,0.0020
3475.00,0.0020
3474.00,0.0020
3473.00,0.0020
3472.00,0.0020
3471.00,0.0021
3470.00,0.0021
3469.00,0.0021
3468.00,0.0020
3467.00,0.0020
3466.00,0.0020
3465.00,0.0020
3464.00,0.0020
3463.00,0.0020
3462.00,0.0020
3461.00,0.0020
3460.00,0.0020
3459.00,0.0020
3458.00,0.0020
3457.00,0.0020
3456.00,0.0020
3455.00,0.0020
3454.00,0.0020
3453.00,0.0020
3452.00,0.0020
3451.00,0.0020
3450.00,0.0020
3449.00,0.0020
3448.00,0.0020
3447.00,0.0020
3446.00,0.0020
3445.00,0.0020
3444.00,0.0020
3443.00,0.0020
3442.00,0.0020
3441.00,0.0020
3440.00,0.0020
3439.00,0.0020
3438.00,0.0021
3437.00,0.0021
3436.00,0.0021
3435.00,0.0021
3434.00,0.0020
3433.00,0.0020
3432.00,0.0021
3431.00,0.0021
3430.00,0.0021
3429.00,0.0021
3428.00,0.0020
3427.00,0.0020
3426.00,0.0020
3425.00,0.0020
3424.00,0.0020
3423.00,0.0020
3422.00,0.0020
3421.00,0.0020
3420.00,0.0020
3419.00,0.0020
3418.00,0.0020
3417.00,0.0020
3416.00,0.0020
3415.00,0.0020
3414.00,0.0020
3413.00,0.0020
3412.00,0.0020
3411.00,0.0020
3410.00,0.0020
3409.00,0.0020
3408.00,0.0020
3407.00,0.0020
3406.00,0.0020
3405.00,0.0020
3404.00,0.0020
3403.00,0.0020
3402.00,0.0020
3401.00,0.0020
3400.00,0.0020
3399.00,0.0020
3398.00,0.0020
3397.00,0.0020
3396.00,0.0020
3395.00,0.0020
3394.00,0.0020
3393.00,0.0020
3392.00,0.0020
3391.00,0.0020
3390.00,0.0020
3389.00,0.0020
3388.00,0.0020
3387.00,0.0020
3386.00,0.0020
3385.00,0.0020
3384.00,0.0020
3383.00,0.0020
3382.00,0.0020
3381.00,0.0020
3380.00,0.0020
3379.00,0.0020
3378.00,0.0020
3377.00,0.0021
3376.00,0.0021
3375.00,0.0021
3374.00,0.0021
3373.00,0.0020
3372.00,0.0020
3371.00,0.0020
3370.00,0.0020
3369.00,0.0020
3368.00,0.0020
3367.00,0.0020
3366.00,0.0020
3365.00,0.0020
3364.00,0.0020
3363.00,0.0020
3362.00,0.0020
3361.00,0.0020
3360.00,0.0020
3359.00,0.0020
3358.00,0.0021
3357.00,0.0021
3356.00,0.0021
3355.00,0.0021
3354.00,0.0020
3353.00,0.0020
3352.00,0.0020
3351.00,0.0020
3350.00,0.0020
3349.00,0.0020
3348.00,0.0020
3347.00,0.0020
3346.00,0.0020
3345.00,0.0020
3344.00,0.0020
3343.00,0.0020
3342.00,0.0020
3341.00,0.0020
3340.00,0.0021
3339.00,0.0021
3338.00,0.0020
3337.00,0.0020
3336.00,0.0020
3335.00,0.0020
3334.00,0.0020
3333.00,0.0020
3332.00,0.0020
3331.00,0.0020
3330.00,0.0020
3329.00,0.0020
3328.00,0.0020
3327.00,0.0020
3326.00,0.0020
3325.00,0.0020
3324.00,0.0020
3323.00,0.0020
3322.00,0.0020
3321.00,0.0020
3320.00,0.0020
3319.00,0.0020
3318.00,0.0020
3317.00,0.0020
3316.00,0.0020
3315.00,0.0020
3314.00,0.0020
3313.00,0.0020
3312.00,0.0020
3311.00,0.0020
3310.00,0.0020
3309.00,0.0020
3308.00,0.0021
3307.00,0.0021
3306.00,0.0021
3305.00,0.0021
3304.00,0.0021
3303.00,0.0021
3302.00,0.0020
3301.00,0.0020
3300.00,0.0020
3299.00,0.0020
3298.00,0.0020
3297.00,0.0020
3296.00,0.0020
3295.00,0.0020
3294.00,0.0020
3293.00,0.0020
3292.00,0.0020
3291.00,0.0020
3290.00,0.0020
3289.00,0.0020
3288.00,0.0020
3287.00,0.0020
3286.00,0.0020
3285.00,0.0020
3284.00,0.0020
3283.00,0.0020
3282.00,0.0020
3281.00,0.0020
3280.00,0.0020
3279.00,0.0020
3278.00,0.0019
3277.00,0.0019
3276.00,0.0019
3275.00,0.0019
3274.00,0.0020
3273.00,0.0020
3272.00,0.0020
3271.00,0.0020
3270.00,0.0020
3269.00,0.0020
3268.00,0.0019
3267.00,0.0019
3266.00,0.0019
3265.00,0.0019
3264.00,0.0019
3263.00,0.0019
3262.00,0.0019
3261.00,0.0019
3260.00,0.0019
3259.00,0.0019
3258.00,0.0019
3257.00,0.0019
3256.00,0.0019
3255.00,0.0019
3254.00,0.0019
3253.00,0.0019
3252.00,0.0019
3251.00,0.0019
3250.00,0.0019
3249.00,0.0019
3248.00,0.0019
3247.00,0.0019
3246.00,0.0019
3245.00,0.0019
3244.00,0.0019
3243.00,0.0019
3242.00,0.0018
3241.00,0.0018
3240.00,0.0018
3239.00,0.0019
3238.00,0.0019
3237.00,0.0019
3236.00,0.0019
3235.00,0.0019
3234.00,0.0019
3233.00,0.0019
3232.00,0.0019
3231.00,0.0019
3230.00,0.0019
3229.00,0.0018
3228.00,0.0018
3227.00,0.0018
3226.00,0.0018
3225.00,0.0018
3224.00,0.0018
3223.00,0.0018
3222.00,0.0018
3221.00,0.0018
3220.00,0.0018
3219.00,0.0018
3218.00,0.0018
3217.00,0.0018
3216.00,0.0018
3215.00,0.0018
3214.00,0.0018
3213.00,0.0018
3212.00,0.0018
3211.00,0.0019
3210.00,0.0019
3209.00,0.0020
3208.00,0.0020
3207.00,0.0020
3206.00,0.0020
3205.00,0.0020
3204.00,0.0020
3203.00,0.0020
3202.00,0.0020
3201.00,0.0020
3200.00,0.0020
3199.00,0.0020
3198.00,0.0020
3197.00,0.0019
3196.00,0.0019
3195.00,0.0019
3194.00,0.0019
3193.00,0.0019
3192.00,0.0019
3191.00,0.0019
3190.00,0.0019
3189.00,0.0019
3188.00,0.0019
3187.00,0.0019
3186.00,0.0019
3185.00,0.0019
3184.00,0.0018
3183.00,0.0018
3182.00,0.0018
3181.00,0.0018
3180.00,0.0018
3179.00,0.0018
3178.00,0.0018
3177.00,0.0018
3176.00,0.0019
3175.00,0.0019
3174.00,0.0019
3173.00,0.0019
3172.00,0.0019
3171.00,0.0019
3170.00,0.0019
3169.00,0.0019
3168.00,0.0019
3167.00,0.0020
3166.00,0.0020
3165.00,0.0021
3164.00,0.0021
3163.00,0.0021
3162.00,0.0021
3161.00,0.0021
3160.00,0.0020
3159.00,0.0020
3158.00,0.0020
3157.00,0.0019
3156.00,0.0019
3155.00,0.0019
3154.00,0.0019
3153.00,0.0019
3152.00,0.0019
3151.00,0.0019
3150.00,0.0019
3149.00,0.0019
3148.00,0.0019
3147.00,0.0018
3146.00,0.0018
3145.00,0.0019
3144.00,0.0019
3143.00,0.0019
3142.00,0.0019
3141.00,0.0019
3140.00,0.0019
3139.00,0.0019
3138.00,0.0019
3137.00,0.0019
3136.00,0.0019
3135.00,0.0019
3134.00,0.0019
3133.00,0.0019
3132.00,0.0019
3131.00,0.0019
3130.00,0.0019
3129.00,0.0019
3128.00,0.0020
3127.00,0.0020
3126.00,0.0020
3125.00,0.0020
3124.00,0.0020
3123.00,0.0021
3122.00,0.0021
3121.00,0.0021
3120.00,0.0022
3119.00,0.0022
3118.00,0.0023
3117.00,0.0024
3116.00,0.0025
3115.00,0.0026
3114.00,0.0027
3113.00,0.0029
3112.00,0.0031
3111.00,0.0033
3110.00,0.0036
3109.00,0.0038
3108.00,0.0041
3107.00,0.0044
3106.00,0.0046
3105.00,0.0048
3104.00,0.0049
3103.00,0.0050
3102.00,0.0050
3101.00,0.0049
3100.00,0.0048
3099.00,0.0048
3098.00,0.0047
3097.00,0.0046
3096.00,0.0047
3095.00,0.0047
3094.00,0.0049
3093.00,0.0052
3092.00,0.0056
3091.00,0.0061
3090.00,0.0067
3089.00,0.0075
3088.00,0.0083
3087.00,0.0092
3086.00,0.0101
3085.00,0.0109
3084.00,0.0115
3083.00,0.0119
3082.00,0.0120
3081.00,0.0118
3080.00,0.0113
3079.00,0.0108
3078.00,0.0102
3077.00,0.0097
3076.00,0.0092
3075.00,0.0089
3074.00,0.0088
3073.00,0.0087
3072.00,0.0089
3071.00,0.0091
3070.00,0.0095
3069.00,0.0100
3068.00,0.0107
3067.00,0.0114
3066.00,0.0123
3065.00,0.0133
3064.00,0.0142
3063.00,0.0151
3062.00,0.0158
3061.00,0.0163
3060.00,0.0165
3059.00,0.0164
3058.00,0.0160
3057.00,0.0153
3056.00,0.0145
3055.00,0.0135
3054.00,0.0126
3053.00,0.0117
3052.00,0.0109
3051.00,0.0103
3050.00,0.0097
3049.00,0.0092
3048.00,0.0089
3047.00,0.0086
3046.00,0.0085
3045.00,0.0085
3044.00,0.0085
3043.00,0.0087
3042.00,0.0090
3041.00,0.0094
3040.00,0.0100
3039.00,0.0106
3038.00,0.0114
3037.00,0.0124
3036.00,0.0135
3035.00,0.0149
3034.00,0.0165
3033.00,0.0184
3032.00,0.0205
3031.00,0.0227
3030.00,0.0251
3029.00,0.0274
3028.00,0.0294
3027.00,0.0309
3026.00,0.0318
3025.00,0.0319
3024.00,0.0311
3023.00,0.0295
3022.00,0.0273
3021.00,0.0247
3020.00,0.0219
3019.00,0.0193
3018.00,0.0168
3017.00,0.0147
3016.00,0.0128
3015.00,0.0113
3014.00,0.0101
3013.00,0.0091
3012.00,0.0084
3011.00,0.0078
3010.00,0.0073
3009.00,0.0070
3008.00,0.0069
3007.00,0.0068
3006.00,0.0069
3005.00,0.0070
3004.00,0.0071
3003.00,0.0072
3002.00,0.0071
3001.00,0.0069
3000.00,0.0065
2999.00,0.0060
2998.00,0.0053
2997.00,0.0046
2996.00,0.0039
2995.00,0.0033
2994.00,0.0027
2993.00,0.0022
2992.00,0.0019
2991.00,0.0016
2990.00,0.0015
2989.00,0.0013
2988.00,0.0012
2987.00,0.0010
2986.00,0.0007
2985.00,0.0002
2984.00,-0.0003
2983.00,-0.0008
2982.00,-0.0012
2981.00,-0.0013
2980.00,-0.0012
2979.00,-0.0009
2978.00,-0.0005
2977.00,-0.0002
2976.00,0.0001
2975.00,0.0002
2974.00,0.0003
2973.00,0.0003
2972.00,0.0004
2971.00,0.0005
2970.00,0.0007
2969.00,0.0010
2968.00,0.0014
2967.00,0.0017
2966.00,0.0021
2965.00,0.0024
2964.00,0.0028
2963.00,0.0031
2962.00,0.0035
2961.00,0.0038
2960.00,0.0041
2959.00,0.0045
2958.00,0.0049
2957.00,0.0053
2956.00,0.0057
2955.00,0.0062
2954.00,0.0067
2953.00,0.0073
2952.00,0.0078
2951.00,0.0084
2950.00,0.0090
2949.00,0.0097
2948.00,0.0104
2947.00,0.0112
2946.00,0.0120
2945.00,0.0129
2944.00,0.0139
2943.00,0.0148
2942.00,0.0158
2941.00,0.0169
2940.00,0.0180
2939.00,0.0191
2938.00,0.0204
2937.00,0.0217
2936.00,0.0230
2935.00,0.0244
2934.00,0.0258
2933.00,0.0271
2932.00,0.0285
2931.00,0.0298
2930.00,0.0311
2929.00,0.0323
2928.00,0.0334
2927.00,0.0344
2926.00,0.0352
2925.00,0.0359
2924.00,0.0364
2923.00,0.0367
2922.00,0.0369
2921.00,0.0369
2920.00,0.0367
2919.00,0.0364
2918.00,0.0360
2917.00,0.0355
2916.00,0.0348
2915.00,0.0341
2914.00,0.0334
2913.00,0.0325
2912.00,0.0316
2911.00,0.0307
2910.00,0.0297
2909.00,0.0287
2908.00,0.0277
2907.00,0.0267
2906.00,0.0257
2905.00,0.0247
2904.00,0.0238
2903.00,0.0228
2902.00,0.0217
2901.00,0.0207
2900.00,0.0198
2899.00,0.0188
2898.00,0.0179
2897.00,0.0171
2896.00,0.0163
2895.00,0.0156
2894.00,0.0150
2893.00,0.0144
2892.00,0.0138
2891.00,0.0134
2890.00,0.0129
2889.00,0.0125
2888.00,0.0122
2887.00,0.0118
2886.00,0.0115
2885.00,0.0112
2884.00,0.0109
2883.00,0.0106
2882.00,0.0104
2881.00,0.0102
2880.00,0.0100
2879.00,0.0098
2878.00,0.0096
2877.00,0.0094
2876.00,0.0092
2875.00,0.0091
2874.00,0.0089
2873.00,0.0087
2872.00,0.0086
2871.00,0.0085
2870.00,0.0085
2869.00,0.0086
2868.00,0.0086
2867.00,0.0088
2866.00,0.0089
2865.00,0.0092
2864.00,0.0095
2863.00,0.0099
2862.00,0.0104
2861.00,0.0109
2860.00,0.0114
2859.00,0.0120
2858.00,0.0127
2857.00,0.0133
2856.00,0.0139
2855.00,0.0145
2854.00,0.0150
2853.00,0.0155
2852.00,0.0159
2851.00,0.0162
2850.00,0.0164
2849.00,0.0165
2848.00,0.0164
2847.00,0.0162
2846.00,0.0158
2845.00,0.0152
2844.00,0.0145
2843.00,0.0136
2842.00,0.0127
2841.00,0.0117
2840.00,0.0108
2839.00,0.0098
2838.00,0.0089
2837.00,0.0081
2836.00,0.0074
2835.00,0.0068
2834.00,0.0062
2833.00,0.0058
2832.00,0.0054
2831.00,0.0051
2830.00,0.0049
2829.00,0.0047
2828.00,0.0045
2827.00,0.0044
2826.00,0.0043
2825.00,0.0042
2824.00,0.0041
2823.00,0.0040
2822.00,0.0039
2821.00,0.0039
2820.00,0.0038
2819.00,0.0038
2818.00,0.0037
2817.00,0.0037
2816.00,0.0037
2815.00,0.0037
2814.00,0.0036
2813.00,0.0036
2812.00,0.0036
2811.00,0.0036
2810.00,0.0035
2809.00,0.0035
2808.00,0.0035
2807.00,0.0035
2806.00,0.0035
2805.00,0.0034
2804.00,0.0034
2803.00,0.0034
2802.00,0.0033
2801.00,0.0033
2800.00,0.0033
2799.00,0.0033
2798.00,0.0032
2797.00,0.0032
2796.00,0.0031
2795.00,0.0031
2794.00,0.0031
2793.00,0.0031
2792.00,0.0031
2791.00,0.0031
2790.00,0.0030
2789.00,0.0030
2788.00,0.0030
2787.00,0.0030
2786.00,0.0030
2785.00,0.0030
2784.00,0.0030
2783.00,0.0030
2782.00,0.0030
2781.00,0.0030
2780.00,0.0030
2779.00,0.0030
2778.00,0.0030
2777.00,0.0029
2776.00,0.0029
2775.00,0.0029
2774.00,0.0029
2773.00,0.0029
2772.00,0.0029
2771.00,0.0028
2770.00,0.0028
2769.00,0.0028
2768.00,0.0027
2767.00,0.0027
2766.00,0.0027
2765.00,0.0027
2764.00,0.0027
2763.00,0.0027
2762.00,0.0027
2761.00,0.0027
2760.00,0.0027
2759.00,0.0027
2758.00,0.0027
2757.00,0.0027
2756.00,0.0026
2755.00,0.0026
2754.00,0.0026
2753.00,0.0026
2752.00,0.0026
2751.00,0.0026
2750.00,0.0026
2749.00,0.0026
2748.00,0.0026
2747.00,0.0026
2746.00,0.0026
2745.00,0.0026
2744.00,0.0026
2743.00,0.0026
2742.00,0.0026
2741.00,0.0026
2740.00,0.0026
2739.00,0.0026
2738.00,0.0027
2737.00,0.0027
2736.00,0.0027
2735.00,0.0027
2734.00,0.0027
2733.00,0.0027
2732.00,0.0027
2731.00,0.0027
2730.00,0.0027
2729.00,0.0027
2728.00,0.0027
2727.00,0.0027
2726.00,0.0027
2725.00,0.0027
2724.00,0.0027
2723.00,0.0027
2722.00,0.0027
2721.00,0.0027
2720.00,0.0027
2719.00,0.0027
2718.00,0.0027
2717.00,0.0027
2716.00,0.0027
2715.00,0.0027
2714.00,0.0027
2713.00,0.0027
2712.00,0.0027
2711.00,0.0027
2710.00,0.0027
2709.00,0.0027
2708.00,0.0027
2707.00,0.0027
2706.00,0.0027
2705.00,0.0027
2704.00,0.0027
2703.00,0.0027
2702.00,0.0027
2701.00,0.0026
2700.00,0.0026
2699.00,0.0026
2698.00,0.0026
2697.00,0.0026
2696.00,0.0026
2695.00,0.0027
2694.00,0.0027
2693.00,0.0027
2692.00,0.0027
2691.00,0.0026
2690.00,0.0026
2689.00,0.0026
2688.00,0.0026
2687.00,0.0026
2686.00,0.0026
2685.00,0.0026
2684.00,0.0026
2683.00,0.0026
2682.00,0.0027
2681.00,0.0027
2680.00,0.0027
2679.00,0.0027
2678.00,0.0026
2677.00,0.0026
2676.00,0.0026
2675.00,0.0026
2674.00,0.0026
2673.00,0.0026
2672.00,0.0026
2671.00,0.0026
2670.00,0.0026
2669.00,0.0026
2668.00,0.0026
2667.00,0.0027
2666.00,0.0027
2665.00,0.0027
2664.00,0.0028
2663.00,0.0028
2662.00,0.0029
2661.00,0.0029
2660.00,0.0030
2659.00,0.0030
2658.00,0.0030
2657.00,0.0030
2656.00,0.0030
2655.00,0.0030
2654.00,0.0030
2653.00,0.0031
2652.00,0.0031
2651.00,0.0031
2650.00,0.0031
2649.00,0.0031
2648.00,0.0031
2647.00,0.0030
2646.00,0.0031
2645.00,0.0031
2644.00,0.0031
2643.00,0.0031
2642.00,0.0031
2641.00,0.0031
2640.00,0.0031
2639.00,0.0031
2638.00,0.0031
2637.00,0.0032
2636.00,0.0032
2635.00,0.0032
2634.00,0.0032
2633.00,0.0032
2632.00,0.0032
2631.00,0.0032
2630.00,0.0032
2629.00,0.0032
2628.00,0.0032
2627.00,0.0031
2626.00,0.0031
2625.00,0.0030
2624.00,0.0030
2623.00,0.0029
2622.00,0.0029
2621.00,0.0029
2620.00,0.0028
2619.00,0.0028
2618.00,0.0028
2617.00,0.0028
2616.00,0.0028
2615.00,0.0028
2614.00,0.0028
2613.00,0.0028
2612.00,0.0028
2611.00,0.0028
2610.00,0.0029
2609.00,0.0029
2608.00,0.0029
2607.00,0.0029
2606.00,0.0030
2605.00,0.0029
2604.00,0.0029
2603.00,0.0029
2602.00,0.0029
2601.00,0.0029
2600.00,0.0028
2599.00,0.0028
2598.00,0.0028
2597.00,0.0028
2596.00,0.0027
2595.00,0.0027
2594.00,0.0026
2593.00,0.0026
2592.00,0.0026
2591.00,0.0026
2590.00,0.0026
2589.00,0.0026
2588.00,0.0026
2587.00,0.0026
2586.00,0.0026
2585.00,0.0026
2584.00,0.0026
2583.00,0.0026
2582.00,0.0026
2581.00,0.0026
2580.00,0.0027
2579.00,0.0027
2578.00,0.0027
2577.00,0.0027
2576.00,0.0026
2575.00,0.0025
2574.00,0.0025
2573.00,0.0025
2572.00,0.0025
2571.00,0.0024
2570.00,0.0024
2569.00,0.0024
2568.00,0.0023
2567.00,0.0023
2566.00,0.0023
2565.00,0.0023
2564.00,0.0023
2563.00,0.0023
2562.00,0.0023
2561.00,0.0023
2560.00,0.0023
2559.00,0.0023
2558.00,0.0023
2557.00,0.0023
2556.00,0.0023
2555.00,0.0023
2554.00,0.0023
2553.00,0.0023
2552.00,0.0023
2551.00,0.0023
2550.00,0.0023
2549.00,0.0023
2548.00,0.0023
2547.00,0.0023
2546.00,0.0023
2545.00,0.0023
2544.00,0.0023
2543.00,0.0023
2542.00,0.0023
2541.00,0.0022
2540.00,0.0022
2539.00,0.0022
2538.00,0.0022
2537.00,0.0022
2536.00,0.0022
2535.00,0.0022
2534.00,0.0021
2533.00,0.0021
2532.00,0.0021
2531.00,0.0022
2530.00,0.0022
2529.00,0.0022
2528.00,0.0022
2527.00,0.0022
2526.00,0.0022
2525.00,0.0022
2524.00,0.0022
2523.00,0.0023
2522.00,0.0022
2521.00,0.0022
2520.00,0.0022
2519.00,0.0021
2518.00,0.0021
2517.00,0.0021
2516.00,0.0022
2515.00,0.0022
2514.00,0.0022
2513.00,0.0021
2512.00,0.0021
2511.00,0.0021
2510.00,0.0021
2509.00,0.0021
2508.00,0.0022
2507.00,0.0022
2506.00,0.0022
2505.00,0.0022
2504.00,0.0022
2503.00,0.0022
2502.00,0.0021
2501.00,0.0021
2500.00,0.0021
2499.00,0.0021
2498.00,0.0021
2497.00,0.0021
2496.00,0.0021
2495.00,0.0021
2494.00,0.0021
2493.00,0.0021
2492.00,0.0021
2491.00,0.0021
2490.00,0.0020
2489.00,0.0020
2488.00,0.0020
2487.00,0.0021
2486.00,0.0021
2485.00,0.0021
2484.00,0.0020
2483.00,0.0020
2482.00,0.0020
2481.00,0.0020
2480.00,0.0020
2479.00,0.0020
2478.00,0.0020
2477.00,0.0020
2476.00,0.0020
2475.00,0.0020
2474.00,0.0020
2473.00,0.0019
2472.00,0.0019
2471.00,0.0019
2470.00,0.0019
2469.00,0.0019
2468.00,0.0019
2467.00,0.0019
2466.00,0.0019
2465.00,0.0019
2464.00,0.0020
2463.00,0.0020
2462.00,0.0020
2461.00,0.0020
2460.00,0.0020
2459.00,0.0020
2458.00,0.0020
2457.00,0.0020
2456.00,0.0020
2455.00,0.0020
2454.00,0.0020
2453.00,0.0020
2452.00,0.0020
2451.00,0.0020
2450.00,0.0020
2449.00,0.0020
2448.00,0.0020
2447.00,0.0020
2446.00,0.0019
2445.00,0.0019
2444.00,0.0019
2443.00,0.0019
2442.00,0.0019
2441.00,0.0019
2440.00,0.0019
2439.00,0.0019
2438.00,0.0019
2437.00,0.0019
2436.00,0.0018
2435.00,0.0018
2434.00,0.0017
2433.00,0.0017
2432.00,0.0017
2431.00,0.0017
2430.00,0.0017
2429.00,0.0017
2428.00,0.0017
2427.00,0.0017
2426.00,0.0017
2425.00,0.0017
2424.00,0.0017
2423.00,0.0016
2422.00,0.0016
2421.00,0.0016
2420.00,0.0016
2419.00,0.0016
2418.00,0.0016
2417.00,0.0016
2416.00,0.0017
2415.00,0.0017
2414.00,0.0017
2413.00,0.0016
2412.00,0.0016
2411.00,0.0016
2410.00,0.0016
2409.00,0.0016
2408.00,0.0016
2407.00,0.0015
2406.00,0.0015
2405.00,0.0015
2404.00,0.0015
2403.00,0.0015
2402.00,0.0015
2401.00,0.0015
2400.00,0.0015
2399.00,0.0015
2398.00,0.0015
2397.00,0.0015
2396.00,0.0015
2395.00,0.0015
2394.00,0.0015
2393.00,0.0015
2392.00,0.0015
2391.00,0.0015
2390.00,0.0016
2389.00,0.0016
2388.00,0.0016
2387.00,0.0016
2386.00,0.0016
2385.00,0.0016
2384.00,0.0016
2383.00,0.0016
2382.00,0.0016
2381.00,0.0016
2380.00,0.0016
2379.00,0.0017
2378.00,0.0016
2377.00,0.0016
2376.00,0.0016
2375.00,0.0017
2374.00,0.0017
2373.00,0.0017
2372.00,0.0016
2371.00,0.0016
2370.00,0.0016
2369.00,0.0016
2368.00,0.0016
2367.00,0.0016
2366.00,0.0016
2365.00,0.0017
2364.00,0.0017
2363.00,0.0018
2362.00,0.0018
2361.00,0.0019
2360.00,0.0019
2359.00,0.0019
2358.00,0.0019
2357.00,0.0020
2356.00,0.0020
2355.00,0.0020
2354.00,0.0020
2353.00,0.0020
2352.00,0.0019
2351.00,0.0020
2350.00,0.0020
2349.00,0.0021
2348.00,0.0022
2347.00,0.0023
2346.00,0.0023
2345.00,0.0023
2344.00,0.0023
2343.00,0.0023
2342.00,0.0024
2341.00,0.0024
2340.00,0.0024
2339.00,0.0025
2338.00,0.0025
2337.00,0.0026
2336.00,0.0026
2335.00,0.0026
2334.00,0.0026
2333.00,0.0025
2332.00,0.0024
2331.00,0.0024
2330.00,0.0024
2329.00,0.0025
2328.00,0.0029
2327.00,0.0033
2326.00,0.0036
2325.00,0.0038
2324.00,0.0037
2323.00,0.0035
2322.00,0.0032
2321.00,0.0031
2320.00,0.0030
2319.00,0.0029
2318.00,0.0029
2317.00,0.0029
2316.00,0.0029
2315.00,0.0029
2314.00,0.0029
2313.00,0.0029
2312.00,0.0029
2311.00,0.0029
2310.00,0.0029
2309.00,0.0029
2308.00,0.0028
2307.00,0.0028
2306.00,0.0027
2305.00,0.0026
2304.00,0.0026
2303.00,0.0025
2302.00,0.0025
2301.00,0.0025
2300.00,0.0025
2299.00,0.0025
2298.00,0.0026
2297.00,0.0027
2296.00,0.0027
2295.00,0.0028
2294.00,0.0029
2293.00,0.0029
2292.00,0.0030
2291.00,0.0030
2290.00,0.0031
2289.00,0.0031
2288.00,0.0031
2287.00,0.0031
2286.00,0.0030
2285.00,0.0029
2284.00,0.0028
2283.00,0.0027
2282.00,0.0027
2281.00,0.0026
2280.00,0.0026
2279.00,0.0025
2278.00,0.0025
2277.00,0.0025
2276.00,0.0025
2275.00,0.0024
2274.00,0.0024
2273.00,0.0024
2272.00,0.0023
2271.00,0.0023
2270.00,0.0022
2269.00,0.0022
2268.00,0.0022
2267.00,0.0022
2266.00,0.0022
2265.00,0.0022
2264.00,0.0023
2263.00,0.0023
2262.00,0.0023
2261.00,0.0023
2260.00,0.0023
2259.00,0.0023
2258.00,0.0022
2257.00,0.0021
2256.00,0.0020
2255.00,0.0019
2254.00,0.0019
2253.00,0.0019
2252.00,0.0019
2251.00,0.0020
2250.00,0.0019
2249.00,0.0019
2248.00,0.0020
2247.00,0.0020
2246.00,0.0020
2245.00,0.0020
2244.00,0.0020
2243.00,0.0020
2242.00,0.0020
2241.00,0.0019
2240.00,0.0019
2239.00,0.0019
2238.00,0.0019
2237.00,0.0019
2236.00,0.0018
2235.00,0.0018
2234.00,0.0018
2233.00,0.0018
2232.00,0.0017
2231.00,0.0017
2230.00,0.0017
2229.00,0.0017
2228.00,0.0017
2227.00,0.0017
2226.00,0.0017
2225.00,0.0018
2224.00,0.0019
2223.00,0.0019
2222.00,0.0019
2221.00,0.0019
2220.00,0.0019
2219.00,0.0019
2218.00,0.0019
2217.00,0.0018
2216.00,0.0018
2215.00,0.0019
2214.00,0.0019
2213.00,0.0020
2212.00,0.0021
2211.00,0.0020
2210.00,0.0019
2209.00,0.0018
2208.00,0.0017
2207.00,0.0016
2206.00,0.0016
2205.00,0.0016
2204.00,0.0017
2203.00,0.0017
2202.00,0.0018
2201.00,0.0018
2200.00,0.0018
2199.00,0.0018
2198.00,0.0018
2197.00,0.0018
2196.00,0.0017
2195.00,0.0018
2194.00,0.0019
2193.00,0.0019
2192.00,0.0019
2191.00,0.0018
2190.00,0.0017
2189.00,0.0018
2188.00,0.0019
2187.00,0.0020
2186.00,0.0021
2185.00,0.0020
2184.00,0.0018
2183.00,0.0015
2182.00,0.0012
2181.00,0.0012
2180.00,0.0012
2179.00,0.0013
2178.00,0.0013
2177.00,0.0012
2176.00,0.0011
2175.00,0.0010
2174.00,0.0011
2173.00,0.0012
2172.00,0.0015
2171.00,0.0019
2170.00,0.0023
2169.00,0.0026
2168.00,0.0027
2167.00,0.0028
2166.00,0.0027
2165.00,0.0028
2164.00,0.0028
2163.00,0.0027
2162.00,0.0021
2161.00,0.0010
2160.00,-0.0004
2159.00,-0.0015
2158.00,-0.0019
2157.00,-0.0019
2156.00,-0.0016
2155.00,-0.0014
2154.00,-0.0011
2153.00,-0.0009
2152.00,-0.0007
2151.00,-0.0005
2150.00,-0.0004
2149.00,-0.0004
2148.00,-0.0003
2147.00,-0.0002
2146.00,-0.0002
2145.00,-0.0002
2144.00,-0.0003
2143.00,-0.0003
2142.00,-0.0003
2141.00,-0.0003
2140.00,-0.0003
2139.00,-0.0003
2138.00,-0.0003
2137.00,-0.0004
2136.00,-0.0005
2135.00,-0.0006
2134.00,-0.0007
2133.00,-0.0007
2132.00,-0.0007
2131.00,-0.0006
2130.00,-0.0005
2129.00,-0.0003
2128.00,-0.0002
2127.00,-0.0000
2126.00,0.0002
2125.00,0.0003
2124.00,0.0005
2123.00,0.0006
2122.00,0.0006
2121.00,0.0007
2120.00,0.0008
2119.00,0.0009
2118.00,0.0010
2117.00,0.0011
2116.00,0.0012
2115.00,0.0013
2114.00,0.0013
2113.00,0.0013
2112.00,0.0013
2111.00,0.0013
2110.00,0.0013
2109.00,0.0012
2108.00,0.0012
2107.00,0.0012
2106.00,0.0012
2105.00,0.0012
2104.00,0.0012
2103.00,0.0012
2102.00,0.0012
2101.00,0.0012
2100.00,0.0012
2099.00,0.0011
2098.00,0.0010
2097.00,0.0009
2096.00,0.0008
2095.00,0.0008
2094.00,0.0008
2093.00,0.0009
2092.00,0.0009
2091.00,0.0010
2090.00,0.0011
2089.00,0.0011
2088.00,0.0012
2087.00,0.0013
2086.00,0.0013
2085.00,0.0012
2084.00,0.0012
2083.00,0.0012
2082.00,0.0012
2081.00,0.0013
2080.00,0.0015
2079.00,0.0015
2078.00,0.0015
2077.00,0.0014
2076.00,0.0013
2075.00,0.0013
2074.00,0.0013
2073.00,0.0013
2072.00,0.0013
2071.00,0.0013
2070.00,0.0013
2069.00,0.0013
2068.00,0.0013
2067.00,0.0012
2066.00,0.0011
2065.00,0.0010
2064.00,0.0010
2063.00,0.0009
2062.00,0.0009
2061.00,0.0009
2060.00,0.0009
2059.00,0.0010
2058.00,0.0010
2057.00,0.0009
2056.00,0.0008
2055.00,0.0009
2054.00,0.0011
2053.00,0.0016
2052.00,0.0020
2051.00,0.0022
2050.00,0.0021
2049.00,0.0019
2048.00,0.0016
2047.00,0.0015
2046.00,0.0014
2045.00,0.0013
2044.00,0.0012
2043.00,0.0012
2042.00,0.0011
2041.00,0.0010
2040.00,0.0010
2039.00,0.0011
2038.00,0.0013
2037.00,0.0013
2036.00,0.0012
2035.00,0.0010
2034.00,0.0007
2033.00,0.0005
2032.00,0.0004
2031.00,0.0004
2030.00,0.0004
2029.00,0.0004
2028.00,0.0005
2027.00,0.0005
2026.00,0.0004
2025.00,0.0002
2024.00,0.0001
2023.00,0.0002
2022.00,0.0003
2021.00,0.0003
2020.00,0.0004
2019.00,0.0004
2018.00,0.0004
2017.00,0.0003
2016.00,0.0003
2015.00,0.0004
2014.00,0.0004
2013.00,0.0005
2012.00,0.0005
2011.00,0.0005
2010.00,0.0005
2009.00,0.0004
2008.00,0.0002
2007.00,0.0000
2006.00,-0.0001
2005.00,-0.0001
2004.00,0.0000
2003.00,0.0002
2002.00,0.0003
2001.00,0.0004
2000.00,0.0005
1999.00,0.0006
1998.00,0.0008
1997.00,0.0010
1996.00,0.0011
1995.00,0.0012
1994.00,0.0013
1993.00,0.0014
1992.00,0.0014
1991.00,0.0015
1990.00,0.0016
1989.00,0.0017
1988.00,0.0018
1987.00,0.0019
1986.00,0.0021
1985.00,0.0023
1984.00,0.0025
1983.00,0.0027
1982.00,0.0028
1981.00,0.0028
1980.00,0.0025
1979.00,0.0021
1978.00,0.0016
1977.00,0.0012
1976.00,0.0010
1975.00,0.0009
1974.00,0.0008
1973.00,0.0007
1972.00,0.0008
1971.00,0.0009
1970.00,0.0010
1969.00,0.0011
1968.00,0.0013
1967.00,0.0015
1966.00,0.0017
1965.00,0.0019
1964.00,0.0021
1963.00,0.0022
1962.00,0.0022
1961.00,0.0022
1960.00,0.0021
1959.00,0.0022
1958.00,0.0024
1957.00,0.0026
1956.00,0.0029
1955.00,0.0030
1954.00,0.0031
1953.00,0.0033
1952.00,0.0034
1951.00,0.0037
1950.00,0.0039
1949.00,0.0041
1948.00,0.0042
1947.00,0.0044
1946.00,0.0045
1945.00,0.0046
1944.00,0.0047
1943.00,0.0048
1942.00,0.0049
1941.00,0.0048
1940.00,0.0047
1939.00,0.0045
1938.00,0.0043
1937.00,0.0039
1936.00,0.0036
1935.00,0.0033
1934.00,0.0031
1933.00,0.0028
1932.00,0.0027
1931.00,0.0025
1930.00,0.0024
1929.00,0.0022
1928.00,0.0020
1927.00,0.0019
1926.00,0.0018
1925.00,0.0017
1924.00,0.0017
1923.00,0.0017
1922.00,0.0017
1921.00,0.0017
1920.00,0.0016
1919.00,0.0016
1918.00,0.0015
1917.00,0.0015
1916.00,0.0015
1915.00,0.0015
1914.00,0.0014
1913.00,0.0014
1912.00,0.0014
1911.00,0.0013
1910.00,0.0013
1909.00,0.0013
1908.00,0.0013
1907.00,0.0013
1906.00,0.0014
1905.00,0.0014
1904.00,0.0014
1903.00,0.0014
1902.00,0.0015
1901.00,0.0016
1900.00,0.0017
1899.00,0.0018
1898.00,0.0019
1897.00,0.0020
1896.00,0.0021
1895.00,0.0021
1894.00,0.0022
1893.00,0.0024
1892.00,0.0025
1891.00,0.0027
1890.00,0.0029
1889.00,0.0030
1888.00,0.0032
1887.00,0.0034
1886.00,0.0035
1885.00,0.0036
1884.00,0.0037
1883.00,0.0038
1882.00,0.0039
1881.00,0.0039
1880.00,0.0040
1879.00,0.0041
1878.00,0.0042
1877.00,0.0043
1876.00,0.0044
1875.00,0.0044
1874.00,0.0045
1873.00,0.0046
1872.00,0.0046
1871.00,0.0046
1870.00,0.0046
1869.00,0.0046
1868.00,0.0045
1867.00,0.0045
1866.00,0.0043
1865.00,0.0042
1864.00,0.0041
1863.00,0.0039
1862.00,0.0037
1861.00,0.0035
1860.00,0.0033
1859.00,0.0031
1858.00,0.0029
1857.00,0.0027
1856.00,0.0026
1855.00,0.0024
1854.00,0.0022
1853.00,0.0021
1852.00,0.0020
1851.00,0.0019
1850.00,0.0019
1849.00,0.0019
1848.00,0.0018
1847.00,0.0018
1846.00,0.0017
1845.00,0.0017
1844.00,0.0017
1843.00,0.0017
1842.00,0.0017
1841.00,0.0016
1840.00,0.0016
1839.00,0.0015
1838.00,0.0015
1837.00,0.0016
1836.00,0.0016
1835.00,0.0017
1834.00,0.0018
1833.00,0.0018
1832.00,0.0019
1831.00,0.0020
1830.00,0.0020
1829.00,0.0021
1828.00,0.0022
1827.00,0.0023
1826.00,0.0024
1825.00,0.0025
1824.00,0.0027
1823.00,0.0028
1822.00,0.0029
1821.00,0.0030
1820.00,0.0030
1819.00,0.0030
1818.00,0.0031
1817.00,0.0032
1816.00,0.0034
1815.00,0.0035
1814.00,0.0038
1813.00,0.0040
1812.00,0.0041
1811.00,0.0043
1810.00,0.0045
1809.00,0.0047
1808.00,0.0049
1807.00,0.0050
1806.00,0.0051
1805.00,0.0052
1804.00,0.0052
1803.00,0.0053
1802.00,0.0053
1801.00,0.0053
1800.00,0.0052
1799.00,0.0051
1798.00,0.0050
1797.00,0.0048
1796.00,0.0046
1795.00,0.0044
1794.00,0.0043
1793.00,0.0040
1792.00,0.0038
1791.00,0.0035
1790.00,0.0033
1789.00,0.0031
1788.00,0.0030
1787.00,0.0029
1786.00,0.0028
1785.00,0.0028
1784.00,0.0027
1783.00,0.0027
1782.00,0.0027
1781.00,0.0027
1780.00,0.0027
1779.00,0.0028
1778.00,0.0028
1777.00,0.0028
1776.00,0.0028
1775.00,0.0028
1774.00,0.0027
1773.00,0.0027
1772.00,0.0027
1771.00,0.0027
1770.00,0.0027
1769.00,0.0028
1768.00,0.0028
1767.00,0.0028
1766.00,0.0029
1765.00,0.0029
1764.00,0.0030
1763.00,0.0031
1762.00,0.0032
1761.00,0.0033
1760.00,0.0035
1759.00,0.0036
1758.00,0.0038
1757.00,0.0040
1756.00,0.0042
1755.00,0.0044
1754.00,0.0046
1753.00,0.0047
1752.00,0.0049
1751.00,0.0051
1750.00,0.0052
1749.00,0.0054
1748.00,0.0055
1747.00,0.0056
1746.00,0.0057
1745.00,0.0058
1744.00,0.0058
1743.00,0.0058
1742.00,0.0058
1741.00,0.0057
1740.00,0.0057
1739.00,0.0056
1738.00,0.0056
1737.00,0.0056
1736.00,0.0055
1735.00,0.0055
1734.00,0.0054
1733.00,0.0052
1732.00,0.0051
1731.00,0.0049
1730.00,0.0048
1729.00,0.0047
1728.00,0.0046
1727.00,0.0045
1726.00,0.0045
1725.00,0.0044
1724.00,0.0043
1723.00,0.0042
1722.00,0.0041
1721.00,0.0041
1720.00,0.0040
1719.00,0.0040
1718.00,0.0039
1717.00,0.0039
1716.00,0.0038
1715.00,0.0037
1714.00,0.0036
1713.00,0.0036
1712.00,0.0035
1711.00,0.0035
1710.00,0.0035
1709.00,0.0034
1708.00,0.0034
1707.00,0.0034
1706.00,0.0034
1705.00,0.0034
1704.00,0.0034
1703.00,0.0034
1702.00,0.0034
1701.00,0.0033
1700.00,0.0033
1699.00,0.0033
1698.00,0.0033
1697.00,0.0033
1696.00,0.0033
1695.00,0.0033
1694.00,0.0033
1693.00,0.0033
1692.00,0.0033
1691.00,0.0033
1690.00,0.0034
1689.00,0.0034
1688.00,0.0035
1687.00,0.0036
1686.00,0.0037
1685.00,0.0037
1684.00,0.0037
1683.00,0.0037
1682.00,0.0038
1681.00,0.0038
1680.00,0.0038
1679.00,0.0039
1678.00,0.0039
1677.00,0.0039
1676.00,0.0040
1675.00,0.0040
1674.00,0.0040
1673.00,0.0041
1672.00,0.0041
1671.00,0.0041
1670.00,0.0041
1669.00,0.0041
1668.00,0.0041
1667.00,0.0041
1666.00,0.0041
1665.00,0.0041
1664.00,0.0040
1663.00,0.0040
1662.00,0.0039
1661.00,0.0039
1660.00,0.0038
1659.00,0.0037
1658.00,0.0037
1657.00,0.0036
1656.00,0.0036
1655.00,0.0035
1654.00,0.0035
1653.00,0.0034
1652.00,0.0034
1651.00,0.0033
1650.00,0.0032
1649.00,0.0032
1648.00,0.0031
1647.00,0.0031
1646.00,0.0031
1645.00,0.0030
1644.00,0.0030
1643.00,0.0030
1642.00,0.0029
1641.00,0.0029
1640.00,0.0029
1639.00,0.0029
1638.00,0.0030
1637.00,0.0030
1636.00,0.0030
1635.00,0.0030
1634.00,0.0030
1633.00,0.0030
1632.00,0.0030
1631.00,0.0031
1630.00,0.0031
1629.00,0.0031
1628.00,0.0032
1627.00,0.0033
1626.00,0.0033
1625.00,0.0034
1624.00,0.0034
1623.00,0.0035
1622.00,0.0036
1621.00,0.0037
1620.00,0.0038
1619.00,0.0039
1618.00,0.0041
1617.00,0.0043
1616.00,0.0046
1615.00,0.0049
1614.00,0.0052
1613.00,0.0057
1612.00,0.0063
1611.00,0.0072
1610.00,0.0084
1609.00,0.0101
1608.00,0.0124
1607.00,0.0153
1606.00,0.0186
1605.00,0.0223
1604.00,0.0260
1603.00,0.0293
1602.00,0.0314
1601.00,0.0320
1600.00,0.0310
1599.00,0.0286
1598.00,0.0254
1597.00,0.0219
1596.00,0.0188
1595.00,0.0162
1594.00,0.0141
1593.00,0.0125
1592.00,0.0112
1591.00,0.0103
1590.00,0.0096
1589.00,0.0093
1588.00,0.0095
1587.00,0.0101
1586.00,0.0112
1585.00,0.0123
1584.00,0.0132
1583.00,0.0135
1582.00,0.0128
1581.00,0.0115
1580.00,0.0100
1579.00,0.0086
1578.00,0.0074
1577.00,0.0065
1576.00,0.0057
1575.00,0.0052
1574.00,0.0048
1573.00,0.0045
1572.00,0.0043
1571.00,0.0041
1570.00,0.0039
1569.00,0.0038
1568.00,0.0037
1567.00,0.0036
1566.00,0.0035
1565.00,0.0035
1564.00,0.0034
1563.00,0.0034
1562.00,0.0034
1561.00,0.0034
1560.00,0.0034
1559.00,0.0034
1558.00,0.0035
1557.00,0.0036
1556.00,0.0037
1555.00,0.0038
1554.00,0.0039
1553.00,0.0041
1552.00,0.0042
1551.00,0.0043
1550.00,0.0045
1549.00,0.0046
1548.00,0.0048
1547.00,0.0049
1546.00,0.0050
1545.00,0.0052
1544.00,0.0052
1543.00,0.0053
1542.00,0.0053
1541.00,0.0052
1540.00,0.0051
1539.00,0.0051
1538.00,0.0050
1537.00,0.0049
1536.00,0.0048
1535.00,0.0047
1534.00,0.0045
1533.00,0.0043
1532.00,0.0042
1531.00,0.0040
1530.00,0.0039
1529.00,0.0038
1528.00,0.0037
1527.00,0.0037
1526.00,0.0036
1525.00,0.0036
1524.00,0.0035
1523.00,0.0036
1522.00,0.0036
1521.00,0.0036
1520.00,0.0036
1519.00,0.0036
1518.00,0.0036
1517.00,0.0037
1516.00,0.0038
1515.00,0.0039
1514.00,0.0040
1513.00,0.0041
1512.00,0.0042
1511.00,0.0043
1510.00,0.0045
1509.00,0.0047
1508.00,0.0050
1507.00,0.0053
1506.00,0.0058
1505.00,0.0063
1504.00,0.0070
1503.00,0.0078
1502.00,0.0091
1501.00,0.0109
1500.00,0.0136
1499.00,0.0177
1498.00,0.0244
1497.00,0.0347
1496.00,0.0482
1495.00,0.0623
1494.00,0.0737
1493.00,0.0800
1492.00,0.0796
1491.00,0.0722
1490.00,0.0602
1489.00,0.0476
1488.00,0.0375
1487.00,0.0301
1486.00,0.0247
1485.00,0.0205
1484.00,0.0174
1483.00,0.0148
1482.00,0.0128
1481.00,0.0113
1480.00,0.0102
1479.00,0.0094
1478.00,0.0087
1477.00,0.0082
1476.00,0.0079
1475.00,0.0075
1474.00,0.0073
1473.00,0.0071
1472.00,0.0071
1471.00,0.0072
1470.00,0.0073
1469.00,0.0075
1468.00,0.0077
1467.00,0.0079
1466.00,0.0082
1465.00,0.0085
1464.00,0.0090
1463.00,0.0096
1462.00,0.0105
1461.00,0.0117
1460.00,0.0135
1459.00,0.0165
1458.00,0.0224
1457.00,0.0326
1456.00,0.0457
1455.00,0.0586
1454.00,0.0696
1453.00,0.0778
1452.00,0.0818
1451.00,0.0808
1450.00,0.0761
1449.00,0.0697
1448.00,0.0631
1447.00,0.0573
1446.00,0.0525
1445.00,0.0484
1444.00,0.0444
1443.00,0.0406
1442.00,0.0370
1441.00,0.0339
1440.00,0.0312
1439.00,0.0287
1438.00,0.0263
1437.00,0.0236
1436.00,0.0210
1435.00,0.0186
1434.00,0.0168
1433.00,0.0152
1432.00,0.0138
1431.00,0.0124
1430.00,0.0113
1429.00,0.0103
1428.00,0.0095
1427.00,0.0089
1426.00,0.0084
1425.00,0.0080
1424.00,0.0077
1423.00,0.0074
1422.00,0.0072
1421.00,0.0071
1420.00,0.0069
1419.00,0.0067
1418.00,0.0065
1417.00,0.0064
1416.00,0.0062
1415.00,0.0061
1414.00,0.0060
1413.00,0.0059
1412.00,0.0058
1411.00,0.0057
1410.00,0.0056
1409.00,0.0056
1408.00,0.0055
1407.00,0.0054
1406.00,0.0053
1405.00,0.0053
1404.00,0.0052
1403.00,0.0051
1402.00,0.0050
1401.00,0.0050
1400.00,0.0049
1399.00,0.0049
1398.00,0.0050
1397.00,0.0050
1396.00,0.0051
1395.00,0.0053
1394.00,0.0055
1393.00,0.0059
1392.00,0.0062
1391.00,0.0067
1390.00,0.0072
1389.00,0.0077
1388.00,0.0083
1387.00,0.0089
1386.00,0.0095
1385.00,0.0101
1384.00,0.0106
1383.00,0.0111
1382.00,0.0116
1381.00,0.0121
1380.00,0.0127
1379.00,0.0132
1378.00,0.0138
1377.00,0.0144
1376.00,0.0149
1375.00,0.0154
1374.00,0.0157
1373.00,0.0160
1372.00,0.0161
1371.00,0.0161
1370.00,0.0161
1369.00,0.0161
1368.00,0.0160
1367.00,0.0159
1366.00,0.0158
1365.00,0.0158
1364.00,0.0157
1363.00,0.0155
1362.00,0.0154
1361.00,0.0152
1360.00,0.0149
1359.00,0.0147
1358.00,0.0145
1357.00,0.0143
1356.00,0.0141
1355.00,0.0140
1354.00,0.0140
1353.00,0.0139
1352.00,0.0139
1351.00,0.0139
1350.00,0.0139
1349.00,0.0138
1348.00,0.0138
1347.00,0.0136
1346.00,0.0135
1345.00,0.0132
1344.00,0.0129
1343.00,0.0127
1342.00,0.0125
1341.00,0.0123
1340.00,0.0121
1339.00,0.0120
1338.00,0.0119
1337.00,0.0120
1336.00,0.0121
1335.00,0.0124
1334.00,0.0127
1333.00,0.0131
1332.00,0.0135
1331.00,0.0138
1330.00,0.0142
1329.00,0.0143
1328.00,0.0144
1327.00,0.0143
1326.00,0.0141
1325.00,0.0139
1324.00,0.0136
1323.00,0.0134
1322.00,0.0133
1321.00,0.0132
1320.00,0.0131
1319.00,0.0132
1318.00,0.0133
1317.00,0.0134
1316.00,0.0136
1315.00,0.0138
1314.00,0.0139
1313.00,0.0140
1312.00,0.0140
1311.00,0.0140
1310.00,0.0139
1309.00,0.0137
1308.00,0.0135
1307.00,0.0133
1306.00,0.0130
1305.00,0.0128
1304.00,0.0126
1303.00,0.0123
1302.00,0.0120
1301.00,0.0118
1300.00,0.0115
1299.00,0.0113
1298.00,0.0112
1297.00,0.0111
1296.00,0.0110
1295.00,0.0109
1294.00,0.0109
1293.00,0.0108
1292.00,0.0107
1291.00,0.0106
1290.00,0.0104
1289.00,0.0103
1288.00,0.0102
1287.00,0.0100
1286.00,0.0100
1285.00,0.0099
1284.00,0.0099
1283.00,0.0099
1282.00,0.0098
1281.00,0.0098
1280.00,0.0096
1279.00,0.0094
1278.00,0.0092
1277.00,0.0090
1276.00,0.0088
1275.00,0.0085
1274.00,0.0083
1273.00,0.0080
1272.00,0.0078
1271.00,0.0075
1270.00,0.0074
1269.00,0.0072
1268.00,0.0070
1267.00,0.0069
1266.00,0.0068
1265.00,0.0067
1264.00,0.0066
1263.00,0.0065
1262.00,0.0065
1261.00,0.0064
1260.00,0.0064
1259.00,0.0064
1258.00,0.0064
1257.00,0.0063
1256.00,0.0063
1255.00,0.0063
1254.00,0.0063
1253.00,0.0063
1252.00,0.0064
1251.00,0.0064
1250.00,0.0065
1249.00,0.0066
1248.00,0.0066
1247.00,0.0067
1246.00,0.0067
1245.00,0.0067
1244.00,0.0067
1243.00,0.0067
1242.00,0.0067
1241.00,0.0067
1240.00,0.0066
1239.00,0.0066
1238.00,0.0066
1237.00,0.0066
1236.00,0.0066
1235.00,0.0066
1234.00,0.0067
1233.00,0.0067
1232.00,0.0067
1231.00,0.0067
1230.00,0.0068
1229.00,0.0069
1228.00,0.0070
1227.00,0.0070
1226.00,0.0071
1225.00,0.0071
1224.00,0.0071
1223.00,0.0072
1222.00,0.0072
1221.00,0.0073
1220.00,0.0073
1219.00,0.0073
1218.00,0.0073
1217.00,0.0074
1216.00,0.0074
1215.00,0.0075
1214.00,0.0076
1213.00,0.0078
1212.00,0.0079
1211.00,0.0081
1210.00,0.0083
1209.00,0.0085
1208.00,0.0087
1207.00,0.0089
1206.00,0.0092
1205.00,0.0095
1204.00,0.0097
1203.00,0.0100
1202.00,0.0103
1201.00,0.0106
1200.00,0.0109
1199.00,0.0111
1198.00,0.0113
1197.00,0.0114
1196.00,0.0115
1195.00,0.0116
1194.00,0.0116
1193.00,0.0117
1192.00,0.0117
1191.00,0.0117
1190.00,0.0118
1189.00,0.0120
1188.00,0.0122
1187.00,0.0126
1186.00,0.0132
1185.00,0.0139
1184.00,0.0147
1183.00,0.0154
1182.00,0.0159
1181.00,0.0159
1180.00,0.0155
1179.00,0.0146
1178.00,0.0135
1177.00,0.0122
1176.00,0.0110
1175.00,0.0101
1174.00,0.0093
1173.00,0.0088
1172.00,0.0084
1171.00,0.0082
1170.00,0.0080
1169.00,0.0079
1168.00,0.0078
1167.00,0.0077
1166.00,0.0078
1165.00,0.0078
1164.00,0.0080
1163.00,0.0082
1162.00,0.0087
1161.00,0.0093
1160.00,0.0101
1159.00,0.0112
1158.00,0.0124
1157.00,0.0136
1156.00,0.0146
1155.00,0.0151
1154.00,0.0150
1153.00,0.0144
1152.00,0.0132
1151.00,0.0119
1150.00,0.0105
1149.00,0.0093
1148.00,0.0082
1147.00,0.0075
1146.00,0.0069
1145.00,0.0065
1144.00,0.0062
1143.00,0.0059
1142.00,0.0056
1141.00,0.0054
1140.00,0.0052
1139.00,0.0051
1138.00,0.0050
1137.00,0.0049
1136.00,0.0049
1135.00,0.0049
1134.00,0.0049
1133.00,0.0049
1132.00,0.0049
1131.00,0.0049
1130.00,0.0050
1129.00,0.0051
1128.00,0.0051
1127.00,0.0052
1126.00,0.0053
1125.00,0.0054
1124.00,0.0055
1123.00,0.0057
1122.00,0.0059
1121.00,0.0061
1120.00,0.0064
1119.00,0.0067
1118.00,0.0070
1117.00,0.0074
1116.00,0.0077
1115.00,0.0080
1114.00,0.0082
1113.00,0.0084
1112.00,0.0085
1111.00,0.0085
1110.00,0.0085
1109.00,0.0084
1108.00,0.0083
1107.00,0.0082
1106.00,0.0082
1105.00,0.0082
1104.00,0.0082
1103.00,0.0083
1102.00,0.0084
1101.00,0.0085
1100.00,0.0086
1099.00,0.0086
1098.00,0.0088
1097.00,0.0089
1096.00,0.0090
1095.00,0.0091
1094.00,0.0092
1093.00,0.0093
1092.00,0.0094
1091.00,0.0096
1090.00,0.0098
1089.00,0.0101
1088.00,0.0103
1087.00,0.0106
1086.00,0.0110
1085.00,0.0115
1084.00,0.0119
1083.00,0.0125
1082.00,0.0130
1081.00,0.0136
1080.00,0.0142
1079.00,0.0147
1078.00,0.0153
1077.00,0.0160
1076.00,0.0167
1075.00,0.0176
1074.00,0.0186
1073.00,0.0197
1072.00,0.0206
1071.00,0.0214
1070.00,0.0220
1069.00,0.0223
1068.00,0.0223
1067.00,0.0219
1066.00,0.0213
1065.00,0.0205
1064.00,0.0195
1063.00,0.0185
1062.00,0.0176
1061.00,0.0168
1060.00,0.0160
1059.00,0.0154
1058.00,0.0148
1057.00,0.0143
1056.00,0.0139
1055.00,0.0135
1054.00,0.0132
1053.00,0.0129
1052.00,0.0126
1051.00,0.0123
1050.00,0.0120
1049.00,0.0119
1048.00,0.0117
1047.00,0.0116
1046.00,0.0115
1045.00,0.0114
1044.00,0.0114
1043.00,0.0114
1042.00,0.0115
1041.00,0.0117
1040.00,0.0121
1039.00,0.0127
1038.00,0.0138
1037.00,0.0154
1036.00,0.0176
1035.00,0.0204
1034.00,0.0240
1033.00,0.0280
1032.00,0.0321
1031.00,0.0359
1030.00,0.0390
1029.00,0.0410
1028.00,0.0417
1027.00,0.0410
1026.00,0.0391
1025.00,0.0363
1024.00,0.0332
1023.00,0.0303
1022.00,0.0279
1021.00,0.0259
1020.00,0.0242
1019.00,0.0228
1018.00,0.0216
1017.00,0.0205
1016.00,0.0195
1015.00,0.0187
1014.00,0.0180
1013.00,0.0173
1012.00,0.0167
1011.00,0.0162
1010.00,0.0159
1009.00,0.0158
1008.00,0.0158
1007.00,0.0160
1006.00,0.0165
1005.00,0.0170
1004.00,0.0174
1003.00,0.0174
1002.00,0.0170
1001.00,0.0162
1000.00,0.0151
999.00,0.0140
998.00,0.0132
997.00,0.0126
996.00,0.0122
995.00,0.0120
994.00,0.0120
993.00,0.0120
992.00,0.0121
991.00,0.0122
990.00,0.0124
989.00,0.0126
988.00,0.0128
987.00,0.0131
986.00,0.0135
985.00,0.0139
984.00,0.0143
983.00,0.0147
982.00,0.0151
981.00,0.0153
980.00,0.0153
979.00,0.0152
978.00,0.0149
977.00,0.0145
976.00,0.0140
975.00,0.0136
974.00,0.0133
973.00,0.0131
972.00,0.0130
971.00,0.0131
970.00,0.0135
969.00,0.0140
968.00,0.0145
967.00,0.0150
966.00,0.0155
965.00,0.0157
964.00,0.0158
963.00,0.0156
962.00,0.0152
961.00,0.0145
960.00,0.0137
959.00,0.0129
958.00,0.0121
957.00,0.0115
956.00,0.0110
955.00,0.0107
954.00,0.0106
953.00,0.0105
952.00,0.0106
951.00,0.0107
950.00,0.0109
949.00,0.0112
948.00,0.0114
947.00,0.0116
946.00,0.0119
945.00,0.0121
944.00,0.0122
943.00,0.0122
942.00,0.0121
941.00,0.0120
940.00,0.0117
939.00,0.0113
938.00,0.0110
937.00,0.0106
936.00,0.0102
935.00,0.0099
934.00,0.0096
933.00,0.0093
932.00,0.0090
931.00,0.0088
930.00,0.0088
929.00,0.0087
928.00,0.0087
927.00,0.0088
926.00,0.0090
925.00,0.0092
924.00,0.0094
923.00,0.0097
922.00,0.0100
921.00,0.0104
920.00,0.0108
919.00,0.0114
918.00,0.0121
917.00,0.0130
916.00,0.0140
915.00,0.0153
914.00,0.0169
913.00,0.0186
912.00,0.0205
911.00,0.0224
910.00,0.0243
909.00,0.0259
908.00,0.0270
907.00,0.0277
906.00,0.0278
905.00,0.0272
904.00,0.0261
903.00,0.0244
902.00,0.0225
901.00,0.0204
900.00,0.0183
899.00,0.0163
898.00,0.0146
897.00,0.0133
896.00,0.0121
895.00,0.0113
894.00,0.0107
893.00,0.0102
892.00,0.0097
891.00,0.0093
890.00,0.0090
889.00,0.0087
888.00,0.0084
887.00,0.0081
886.00,0.0079
885.00,0.0078
884.00,0.0076
883.00,0.0075
882.00,0.0074
881.00,0.0073
880.00,0.0071
879.00,0.0070
878.00,0.0069
877.00,0.0068
876.00,0.0067
875.00,0.0067
874.00,0.0067
873.00,0.0066
872.00,0.0065
871.00,0.0065
870.00,0.0064
869.00,0.0064
868.00,0.0064
867.00,0.0063
866.00,0.0063
865.00,0.0063
864.00,0.0062
863.00,0.0062
862.00,0.0063
861.00,0.0063
860.00,0.0063
859.00,0.0063
858.00,0.0064
857.00,0.0065
856.00,0.0066
855.00,0.0067
854.00,0.0070
853.00,0.0074
852.00,0.0078
851.00,0.0083
850.00,0.0089
849.00,0.0097
848.00,0.0105
847.00,0.0114
846.00,0.0122
845.00,0.0129
844.00,0.0135
843.00,0.0138
842.00,0.0141
841.00,0.0141
840.00,0.0138
839.00,0.0133
838.00,0.0126
837.00,0.0117
836.00,0.0106
835.00,0.0096
834.00,0.0087
833.00,0.0080
832.00,0.0073
831.00,0.0068
830.00,0.0066
829.00,0.0063
828.00,0.0061
827.00,0.0060
826.00,0.0059
825.00,0.0059
824.00,0.0058
823.00,0.0057
822.00,0.0056
821.00,0.0056
820.00,0.0057
819.00,0.0058
818.00,0.0059
817.00,0.0059
816.00,0.0060
815.00,0.0060
814.00,0.0061
813.00,0.0062
812.00,0.0062
811.00,0.0062
810.00,0.0063
809.00,0.0065
808.00,0.0065
807.00,0.0065
806.00,0.0066
805.00,0.0066
804.00,0.0067
803.00,0.0068
802.00,0.0071
801.00,0.0074
800.00,0.0077
799.00,0.0080
798.00,0.0084
797.00,0.0088
796.00,0.0092
795.00,0.0097
794.00,0.0103
793.00,0.0109
792.00,0.0116
791.00,0.0122
790.00,0.0130
789.00,0.0139
788.00,0.0148
787.00,0.0158
786.00,0.0168
785.00,0.0179
784.00,0.0190
783.00,0.0202
782.00,0.0217
781.00,0.0233
780.00,0.0252
779.00,0.0273
778.00,0.0298
777.00,0.0326
776.00,0.0356
775.00,0.0390
774.00,0.0427
773.00,0.0467
772.00,0.0509
771.00,0.0555
770.00,0.0604
769.00,0.0655
768.00,0.0705
767.00,0.0755
766.00,0.0804
765.00,0.0853
764.00,0.0900
763.00,0.0950
762.00,0.1002
761.00,0.1054
760.00,0.1105
759.00,0.1152
758.00,0.1192
757.00,0.1223
756.00,0.1242
755.00,0.1250
754.00,0.1251
753.00,0.1247
752.00,0.1240
751.00,0.1234
750.00,0.1229
749.00,0.1224
748.00,0.1213
747.00,0.1192
746.00,0.1155
745.00,0.1100
744.00,0.1028
743.00,0.0946
742.00,0.0862
741.00,0.0779
740.00,0.0702
739.00,0.0632
738.00,0.0568
737.00,0.0509
736.00,0.0452
735.00,0.0398
734.00,0.0348
733.00,0.0301
732.00,0.0261
731.00,0.0227
730.00,0.0201
729.00,0.0181
728.00,0.0166
727.00,0.0155
726.00,0.0147
725.00,0.0142
724.00,0.0139
723.00,0.0137
722.00,0.0137
721.00,0.0137
720.00,0.0139
719.00,0.0142
718.00,0.0147
717.00,0.0154
716.00,0.0163
715.00,0.0177
714.00,0.0198
713.00,0.0227
712.00,0.0266
711.00,0.0321
710.00,0.0396
709.00,0.0494
708.00,0.0618
707.00,0.0771
706.00,0.0958
705.00,0.1177
704.00,0.1429
703.00,0.1714
702.00,0.2033
701.00,0.2382
700.00,0.2754
699.00,0.3141
698.00,0.3528
697.00,0.3874
696.00,0.4111
695.00,0.4167
694.00,0.4002
693.00,0.3640
692.00,0.3168
691.00,0.2687
690.00,0.2261
689.00,0.1911
688.00,0.1634
687.00,0.1418
686.00,0.1251
685.00,0.1119
684.00,0.1011
683.00,0.0922
682.00,0.0849
681.00,0.0787
680.00,0.0733
679.00,0.0686
678.00,0.0647
677.00,0.0613
676.00,0.0583
675.00,0.0557
674.00,0.0535
673.00,0.0515
672.00,0.0497
671.00,0.0482
670.00,0.0469
669.00,0.0454
668.00,0.0435
667.00,0.0415
666.00,0.0399
665.00,0.0384
664.00,0.0368
663.00,0.0352
662.00,0.0338
661.00,0.0323
660.00,0.0308
659.00,0.0294
658.00,0.0282
657.00,0.0270
656.00,0.0259
655.00,0.0249
654.00,0.0240
653.00,0.0232
652.00,0.0223
651.00,0.0215
650.00,0.0208
649.00,0.0203
648.00,0.0196
647.00,0.0191
646.00,0.0187
645.00,0.0184
644.00,0.0181
643.00,0.0179
642.00,0.0178
641.00,0.0178
640.00,0.0177
639.00,0.0179
638.00,0.0182
637.00,0.0187
636.00,0.0192
635.00,0.0198
634.00,0.0204
633.00,0.0210
632.00,0.0214
631.00,0.0218
630.00,0.0222
629.00,0.0226
628.00,0.0228
627.00,0.0230
626.00,0.0233
625.00,0.0237
624.00,0.0241
623.00,0.0246
622.00,0.0253
621.00,0.0256
620.00,0.0254
619.00,0.0247
618.00,0.0239
617.00,0.0230
616.00,0.0222
615.00,0.0216
614.00,0.0212
613.00,0.0209
612.00,0.0206
611.00,0.0202
610.00,0.0200
609.00,0.0197
608.00,0.0194
607.00,0.0192
606.00,0.0193
605.00,0.0194
604.00,0.0194
603.00,0.0194
602.00,0.0196
601.00,0.0198
600.00,0.0200
599.00,0.0201
598.00,0.0204
597.00,0.0207
596.00,0.0209
595.00,0.0212
594.00,0.0216
593.00,0.0220
592.00,0.0223
591.00,0.0226
590.00,0.0230
589.00,0.0233
588.00,0.0235
587.00,0.0236
586.00,0.0240
585.00,0.0246
584.00,0.0251
583.00,0.0258
582.00,0.0268
581.00,0.0278
580.00,0.0288
579.00,0.0299
578.00,0.0313
577.00,0.0327
576.00,0.0341
575.00,0.0356
574.00,0.0374
573.00,0.0391
572.00,0.0408
571.00,0.0424
570.00,0.0441
569.00,0.0456
568.00,0.0470
567.00,0.0485
566.00,0.0501
565.00,0.0518
564.00,0.0534
563.00,0.0549
562.00,0.0567
561.00,0.0584
560.00,0.0600
559.00,0.0616
558.00,0.0633
557.00,0.0650
556.00,0.0667
555.00,0.0685
554.00,0.0705
553.00,0.0726
552.00,0.0747
551.00,0.0770
550.00,0.0797
549.00,0.0826
548.00,0.0855
547.00,0.0888
546.00,0.0926
545.00,0.0967
544.00,0.1008
543.00,0.1050
542.00,0.1090
541.00,0.1126
540.00,0.1153
539.00,0.1170
538.00,0.1175
537.00,0.1165
536.00,0.1139
535.00,0.1099
534.00,0.1050
533.00,0.0994
532.00,0.0934
531.00,0.0873
530.00,0.0815
529.00,0.0760
528.00,0.0707
527.00,0.0656
526.00,0.0611
525.00,0.0570
524.00,0.0532
523.00,0.0500
522.00,0.0475
521.00,0.0454
520.00,0.0434
519.00,0.0416
518.00,0.0403
517.00,0.0390
516.00,0.0374
515.00,0.0360
514.00,0.0349
513.00,0.0339
512.00,0.0329
511.00,0.0318
510.00,0.0310
509.00,0.0301
508.00,0.0290
507.00,0.0279
506.00,0.0270
505.00,0.0261
504.00,0.0250
503.00,0.0241
502.00,0.0236
501.00,0.0232
500.00,0.0226
499.00,0.0219
498.00,0.0215
497.00,0.0211
496.00,0.0205
495.00,0.0200
494.00,0.0199
493.00,0.0197
492.00,0.0192
491.00,0.0187
490.00,0.0185
489.00,0.0184
488.00,0.0180
487.00,0.0177
486.00,0.0176
485.00,0.0175
484.00,0.0171
483.00,0.0169
482.00,0.0169
481.00,0.0166
480.00,0.0160
479.00,0.0156
478.00,0.0156
477.00,0.0157
476.00,0.0154
475.00,0.0151
474.00,0.0150
473.00,0.0149
472.00,0.0145
471.00,0.0143
470.00,0.0146
469.00,0.0149
468.00,0.0148
467.00,0.0146
466.00,0.0146
465.00,0.0144
464.00,0.0138
463.00,0.0134
462.00,0.0135
461.00,0.0136
460.00,0.0132
459.00,0.0131
458.00,0.0134
457.00,0.0136
456.00,0.0132
455.00,0.0130
454.00,0.0137
453.00,0.0143
452.00,0.0143
451.00,0.0140
450.00,0.0140
449.00,0.0140
448.00,0.0138
447.00,0.0135
446.00,0.0135
445.00,0.0135
444.00,0.0129
443.00,0.0125
442.00,0.0124
441.00,0.0123
440.00,0.0119
439.00,0.0117
438.00,0.0121
437.00,0.0123
436.00,0.0118
435.00,0.0114
434.00,0.0116
433.00,0.0117
432.00,0.0112
431.00,0.0108
430.00,0.0111
429.00,0.0112
428.00,0.0107
427.00,0.0100
426.00,0.0099
425.00,0.0099
424.00,0.0095
423.00,0.0095
422.00,0.0104
421.00,0.0112
420.00,0.0112
419.00,0.0111
418.00,0.0114
417.00,0.0113
416.00,0.0103
415.00,0.0099
414.00,0.0106
413.00,0.0116
412.00,0.0119
411.00,0.0123
410.00,0.0134
409.00,0.0141
408.00,0.0135
407.00,0.0130
406.00,0.0139
405.00,0.0149
404.00,0.0143
403.00,0.0132
402.00,0.0125
401.00,0.0111
400.00,0.0086
