Created as New Dataset,Sample 840 By YargerLab Date Friday, July 18 2025
cm-1,A
4000.00,0.0007
3999.00,0.0007
3998.00,0.0007
3997.00,0.0007
3996.00,0.0007
3995.00,0.0007
3994.00,0.0007
3993.00,0.0007
3992.00,0.0007
3991.00,0.0007
3990.00,0.0007
3989.00,0.0007
3988.00,0.0007
3987.00,0.0007
3986.00,0.0007
3985.00,0.0007
3984.00,0.0007
3983.00,0.0006
3982.00,0.0006
3981.00,0.0006
3980.00,0.0006
3979.00,0.0006
3978.00,0.0007
3977.00,0.0007
3976.00,0.0007
3975.00,0.0008
3974.00,0.0007
3973.00,0.0007
3972.00,0.0007
3971.00,0.0007
3970.00,0.0007
3969.00,0.0007
3968.00,0.0007
3967.00,0.0007
3966.00,0.0007
3965.00,0.0007
3964.00,0.0007
3963.00,0.0007
3962.00,0.0007
3961.00,0.0007
3960.00,0.0007
3959.00,0.0007
3958.00,0.0007
3957.00,0.0007
3956.00,0.0007
3955.00,0.0007
3954.00,0.0007
3953.00,0.0007
3952.00,0.0007
3951.00,0.0007
3950.00,0.0007
3949.00,0.0007
3948.00,0.0007
3947.00,0.0007
3946.00,0.0007
3945.00,0.0007
3944.00,0.0007
3943.00,0.0007
3942.00,0.0007
3941.00,0.0007
3940.00,0.0007
3939.00,0.0007
3938.00,0.0007
3937.00,0.0007
3936.00,0.0007
3935.00,0.0007
3934.00,0.0007
3933.00,0.0007
3932.00,0.0007
3931.00,0.0006
3930.00,0.0006
3929.00,0.0006
3928.00,0.0006
3927.00,0.0006
3926.00,0.0006
3925.00,0.0006
3924.00,0.0006
3923.00,0.0006
3922.00,0.0006
3921.00,0.0006
3920.00,0.0006
3919.00,0.0006
3918.00,0.0006
3917.00,0.0006
3916.00,0.0006
3915.00,0.0006
3914.00,0.0006
3913.00,0.0006
3912.00,0.0007
3911.00,0.0007
3910.00,0.0007
3909.00,0.0007
3908.00,0.0007
3907.00,0.0006
3906.00,0.0006
3905.00,0.0006
3904.00,0.0006
3903.00,0.0006
3902.00,0.0006
3901.00,0.0006
3900.00,0.0006
3899.00,0.0006
3898.00,0.0006
3897.00,0.0006
3896.00,0.0006
3895.00,0.0006
3894.00,0.0006
3893.00,0.0006
3892.00,0.0006
3891.00,0.0007
3890.00,0.0007
3889.00,0.0007
3888.00,0.0007
3887.00,0.0006
3886.00,0.0006
3885.00,0.0006
3884.00,0.0006
3883.00,0.0005
3882.00,0.0005
3881.00,0.0005
3880.00,0.0005
3879.00,0.0005
3878.00,0.0006
3877.00,0.0005
3876.00,0.0005
3875.00,0.0005
3874.00,0.0006
3873.00,0.0006
3872.00,0.0005
3871.00,0.0005
3870.00,0.0005
3869.00,0.0006
3868.00,0.0006
3867.00,0.0005
3866.00,0.0005
3865.00,0.0006
3864.00,0.0006
3863.00,0.0006
3862.00,0.0006
3861.00,0.0006
3860.00,0.0006
3859.00,0.0006
3858.00,0.0006
3857.00,0.0006
3856.00,0.0006
3855.00,0.0005
3854.00,0.0005
3853.00,0.0005
3852.00,0.0005
3851.00,0.0005
3850.00,0.0005
3849.00,0.0006
3848.00,0.0006
3847.00,0.0006
3846.00,0.0006
3845.00,0.0006
3844.00,0.0006
3843.00,0.0006
3842.00,0.0006
3841.00,0.0005
3840.00,0.0005
3839.00,0.0005
3838.00,0.0005
3837.00,0.0005
3836.00,0.0005
3835.00,0.0006
3834.00,0.0006
3833.00,0.0006
3832.00,0.0006
3831.00,0.0006
3830.00,0.0006
3829.00,0.0006
3828.00,0.0006
3827.00,0.0007
3826.00,0.0007
3825.00,0.0007
3824.00,0.0006
3823.00,0.0006
3822.00,0.0005
3821.00,0.0006
3820.00,0.0006
3819.00,0.0005
3818.00,0.0005
3817.00,0.0005
3816.00,0.0005
3815.00,0.0006
3814.00,0.0006
3813.00,0.0007
3812.00,0.0007
3811.00,0.0007
3810.00,0.0007
3809.00,0.0006
3808.00,0.0006
3807.00,0.0006
3806.00,0.0006
3805.00,0.0006
3804.00,0.0006
3803.00,0.0005
3802.00,0.0005
3801.00,0.0005
3800.00,0.0006
3799.00,0.0005
3798.00,0.0005
3797.00,0.0005
3796.00,0.0006
3795.00,0.0006
3794.00,0.0006
3793.00,0.0006
3792.00,0.0007
3791.00,0.0007
3790.00,0.0007
3789.00,0.0007
3788.00,0.0007
3787.00,0.0007
3786.00,0.0007
3785.00,0.0007
3784.00,0.0007
3783.00,0.0007
3782.00,0.0007
3781.00,0.0007
3780.00,0.0007
3779.00,0.0007
3778.00,0.0007
3777.00,0.0007
3776.00,0.0007
3775.00,0.0007
3774.00,0.0007
3773.00,0.0007
3772.00,0.0007
3771.00,0.0007
3770.00,0.0007
3769.00,0.0007
3768.00,0.0007
3767.00,0.0006
3766.00,0.0006
3765.00,0.0006
3764.00,0.0006
3763.00,0.0007
3762.00,0.0007
3761.00,0.0007
3760.00,0.0007
3759.00,0.0007
3758.00,0.0007
3757.00,0.0007
3756.00,0.0007
3755.00,0.0007
3754.00,0.0007
3753.00,0.0006
3752.00,0.0006
3751.00,0.0006
3750.00,0.0005
3749.00,0.0005
3748.00,0.0005
3747.00,0.0005
3746.00,0.0005
3745.00,0.0005
3744.00,0.0006
3743.00,0.0006
3742.00,0.0006
3741.00,0.0006
3740.00,0.0006
3739.00,0.0007
3738.00,0.0006
3737.00,0.0006
3736.00,0.0006
3735.00,0.0006
3734.00,0.0006
3733.00,0.0005
3732.00,0.0005
3731.00,0.0005
3730.00,0.0005
3729.00,0.0005
3728.00,0.0005
3727.00,0.0005
3726.00,0.0006
3725.00,0.0006
3724.00,0.0005
3723.00,0.0005
3722.00,0.0006
3721.00,0.0006
3720.00,0.0006
3719.00,0.0007
3718.00,0.0007
3717.00,0.0007
3716.00,0.0007
3715.00,0.0006
3714.00,0.0006
3713.00,0.0006
3712.00,0.0005
3711.00,0.0005
3710.00,0.0005
3709.00,0.0005
3708.00,0.0005
3707.00,0.0005
3706.00,0.0006
3705.00,0.0006
3704.00,0.0006
3703.00,0.0006
3702.00,0.0006
3701.00,0.0006
3700.00,0.0006
3699.00,0.0006
3698.00,0.0006
3697.00,0.0006
3696.00,0.0006
3695.00,0.0006
3694.00,0.0006
3693.00,0.0005
3692.00,0.0005
3691.00,0.0005
3690.00,0.0005
3689.00,0.0005
3688.00,0.0005
3687.00,0.0005
3686.00,0.0005
3685.00,0.0006
3684.00,0.0006
3683.00,0.0007
3682.00,0.0007
3681.00,0.0007
3680.00,0.0007
3679.00,0.0006
3678.00,0.0006
3677.00,0.0005
3676.00,0.0004
3675.00,0.0003
3674.00,0.0003
3673.00,0.0003
3672.00,0.0003
3671.00,0.0003
3670.00,0.0003
3669.00,0.0004
3668.00,0.0004
3667.00,0.0005
3666.00,0.0005
3665.00,0.0005
3664.00,0.0005
3663.00,0.0006
3662.00,0.0006
3661.00,0.0006
3660.00,0.0006
3659.00,0.0006
3658.00,0.0006
3657.00,0.0006
3656.00,0.0005
3655.00,0.0005
3654.00,0.0005
3653.00,0.0004
3652.00,0.0004
3651.00,0.0004
3650.00,0.0004
3649.00,0.0004
3648.00,0.0004
3647.00,0.0004
3646.00,0.0004
3645.00,0.0005
3644.00,0.0005
3643.00,0.0006
3642.00,0.0006
3641.00,0.0006
3640.00,0.0006
3639.00,0.0006
3638.00,0.0005
3637.00,0.0005
3636.00,0.0005
3635.00,0.0005
3634.00,0.0005
3633.00,0.0005
3632.00,0.0005
3631.00,0.0005
3630.00,0.0005
3629.00,0.0005
3628.00,0.0005
3627.00,0.0005
3626.00,0.0005
3625.00,0.0006
3624.00,0.0006
3623.00,0.0006
3622.00,0.0006
3621.00,0.0006
3620.00,0.0005
3619.00,0.0005
3618.00,0.0005
3617.00,0.0006
3616.00,0.0006
3615.00,0.0006
3614.00,0.0006
3613.00,0.0005
3612.00,0.0005
3611.00,0.0005
3610.00,0.0005
3609.00,0.0006
3608.00,0.0006
3607.00,0.0006
3606.00,0.0006
3605.00,0.0006
3604.00,0.0006
3603.00,0.0006
3602.00,0.0006
3601.00,0.0006
3600.00,0.0007
3599.00,0.0007
3598.00,0.0007
3597.00,0.0007
3596.00,0.0007
3595.00,0.0007
3594.00,0.0007
3593.00,0.0007
3592.00,0.0007
3591.00,0.0007
3590.00,0.0006
3589.00,0.0006
3588.00,0.0006
3587.00,0.0006
3586.00,0.0006
3585.00,0.0006
3584.00,0.0006
3583.00,0.0006
3582.00,0.0007
3581.00,0.0007
3580.00,0.0007
3579.00,0.0007
3578.00,0.0007
3577.00,0.0007
3576.00,0.0007
3575.00,0.0007
3574.00,0.0007
3573.00,0.0007
3572.00,0.0007
3571.00,0.0007
3570.00,0.0007
3569.00,0.0007
3568.00,0.0006
3567.00,0.0006
3566.00,0.0006
3565.00,0.0006
3564.00,0.0007
3563.00,0.0007
3562.00,0.0007
3561.00,0.0007
3560.00,0.0007
3559.00,0.0007
3558.00,0.0007
3557.00,0.0007
3556.00,0.0008
3555.00,0.0008
3554.00,0.0008
3553.00,0.0008
3552.00,0.0008
3551.00,0.0008
3550.00,0.0008
3549.00,0.0008
3548.00,0.0008
3547.00,0.0008
3546.00,0.0008
3545.00,0.0008
3544.00,0.0008
3543.00,0.0008
3542.00,0.0008
3541.00,0.0008
3540.00,0.0009
3539.00,0.0008
3538.00,0.0008
3537.00,0.0008
3536.00,0.0008
3535.00,0.0008
3534.00,0.0008
3533.00,0.0008
3532.00,0.0008
3531.00,0.0009
3530.00,0.0009
3529.00,0.0009
3528.00,0.0009
3527.00,0.0009
3526.00,0.0009
3525.00,0.0009
3524.00,0.0009
3523.00,0.0009
3522.00,0.0009
3521.00,0.0009
3520.00,0.0009
3519.00,0.0009
3518.00,0.0009
3517.00,0.0009
3516.00,0.0009
3515.00,0.0010
3514.00,0.0010
3513.00,0.0010
3512.00,0.0010
3511.00,0.0010
3510.00,0.0009
3509.00,0.0009
3508.00,0.0009
3507.00,0.0009
3506.00,0.0010
3505.00,0.0010
3504.00,0.0010
3503.00,0.0010
3502.00,0.0009
3501.00,0.0009
3500.00,0.0009
3499.00,0.0009
3498.00,0.0010
3497.00,0.0010
3496.00,0.0010
3495.00,0.0010
3494.00,0.0010
3493.00,0.0010
3492.00,0.0010
3491.00,0.0010
3490.00,0.0010
3489.00,0.0010
3488.00,0.0010
3487.00,0.0011
3486.00,0.0011
3485.00,0.0011
3484.00,0.0011
3483.00,0.0011
3482.00,0.0011
3481.00,0.0011
3480.00,0.0011
3479.00,0.0010
3478.00,0.0010
3477.00,0.0010
3476.00,0.0010
3475.00,0.0011
3474.00,0.0011
3473.00,0.0011
3472.00,0.0011
3471.00,0.0011
3470.00,0.0011
3469.00,0.0011
3468.00,0.0011
3467.00,0.0011
3466.00,0.0011
3465.00,0.0011
3464.00,0.0011
3463.00,0.0011
3462.00,0.0011
3461.00,0.0011
3460.00,0.0011
3459.00,0.0011
3458.00,0.0011
3457.00,0.0011
3456.00,0.0011
3455.00,0.0011
3454.00,0.0011
3453.00,0.0011
3452.00,0.0011
3451.00,0.0011
3450.00,0.0011
3449.00,0.0011
3448.00,0.0011
3447.00,0.0011
3446.00,0.0011
3445.00,0.0011
3444.00,0.0011
3443.00,0.0010
3442.00,0.0010
3441.00,0.0011
3440.00,0.0011
3439.00,0.0011
3438.00,0.0011
3437.00,0.0011
3436.00,0.0011
3435.00,0.0011
3434.00,0.0011
3433.00,0.0011
3432.00,0.0011
3431.00,0.0011
3430.00,0.0011
3429.00,0.0011
3428.00,0.0011
3427.00,0.0011
3426.00,0.0011
3425.00,0.0011
3424.00,0.0011
3423.00,0.0011
3422.00,0.0011
3421.00,0.0011
3420.00,0.0011
3419.00,0.0011
3418.00,0.0011
3417.00,0.0011
3416.00,0.0011
3415.00,0.0011
3414.00,0.0011
3413.00,0.0011
3412.00,0.0011
3411.00,0.0011
3410.00,0.0011
3409.00,0.0011
3408.00,0.0011
3407.00,0.0011
3406.00,0.0011
3405.00,0.0011
3404.00,0.0011
3403.00,0.0011
3402.00,0.0011
3401.00,0.0011
3400.00,0.0011
3399.00,0.0011
3398.00,0.0011
3397.00,0.0011
3396.00,0.0011
3395.00,0.0011
3394.00,0.0011
3393.00,0.0011
3392.00,0.0011
3391.00,0.0011
3390.00,0.0011
3389.00,0.0011
3388.00,0.0011
3387.00,0.0011
3386.00,0.0011
3385.00,0.0012
3384.00,0.0012
3383.00,0.0012
3382.00,0.0012
3381.00,0.0012
3380.00,0.0011
3379.00,0.0011
3378.00,0.0011
3377.00,0.0011
3376.00,0.0011
3375.00,0.0011
3374.00,0.0011
3373.00,0.0011
3372.00,0.0011
3371.00,0.0011
3370.00,0.0010
3369.00,0.0010
3368.00,0.0011
3367.00,0.0011
3366.00,0.0011
3365.00,0.0011
3364.00,0.0011
3363.00,0.0012
3362.00,0.0012
3361.00,0.0011
3360.00,0.0012
3359.00,0.0012
3358.00,0.0012
3357.00,0.0011
3356.00,0.0011
3355.00,0.0011
3354.00,0.0011
3353.00,0.0011
3352.00,0.0011
3351.00,0.0011
3350.00,0.0011
3349.00,0.0011
3348.00,0.0011
3347.00,0.0011
3346.00,0.0011
3345.00,0.0011
3344.00,0.0011
3343.00,0.0011
3342.00,0.0011
3341.00,0.0011
3340.00,0.0011
3339.00,0.0012
3338.00,0.0012
3337.00,0.0011
3336.00,0.0011
3335.00,0.0011
3334.00,0.0011
3333.00,0.0011
3332.00,0.0011
3331.00,0.0011
3330.00,0.0011
3329.00,0.0011
3328.00,0.0011
3327.00,0.0011
3326.00,0.0011
3325.00,0.0011
3324.00,0.0011
3323.00,0.0011
3322.00,0.0011
3321.00,0.0011
3320.00,0.0011
3319.00,0.0011
3318.00,0.0011
3317.00,0.0011
3316.00,0.0011
3315.00,0.0011
3314.00,0.0011
3313.00,0.0011
3312.00,0.0011
3311.00,0.0011
3310.00,0.0011
3309.00,0.0011
3308.00,0.0011
3307.00,0.0011
3306.00,0.0011
3305.00,0.0011
3304.00,0.0011
3303.00,0.0011
3302.00,0.0011
3301.00,0.0011
3300.00,0.0011
3299.00,0.0011
3298.00,0.0011
3297.00,0.0011
3296.00,0.0011
3295.00,0.0011
3294.00,0.0011
3293.00,0.0011
3292.00,0.0011
3291.00,0.0010
3290.00,0.0010
3289.00,0.0010
3288.00,0.0010
3287.00,0.0011
3286.00,0.0010
3285.00,0.0010
3284.00,0.0010
3283.00,0.0010
3282.00,0.0010
3281.00,0.0011
3280.00,0.0011
3279.00,0.0011
3278.00,0.0011
3277.00,0.0011
3276.00,0.0011
3275.00,0.0011
3274.00,0.0011
3273.00,0.0010
3272.00,0.0010
3271.00,0.0010
3270.00,0.0010
3269.00,0.0010
3268.00,0.0010
3267.00,0.0010
3266.00,0.0010
3265.00,0.0010
3264.00,0.0010
3263.00,0.0010
3262.00,0.0010
3261.00,0.0010
3260.00,0.0010
3259.00,0.0010
3258.00,0.0010
3257.00,0.0010
3256.00,0.0010
3255.00,0.0010
3254.00,0.0010
3253.00,0.0010
3252.00,0.0010
3251.00,0.0010
3250.00,0.0010
3249.00,0.0010
3248.00,0.0010
3247.00,0.0010
3246.00,0.0010
3245.00,0.0010
3244.00,0.0010
3243.00,0.0010
3242.00,0.0010
3241.00,0.0010
3240.00,0.0010
3239.00,0.0010
3238.00,0.0010
3237.00,0.0010
3236.00,0.0010
3235.00,0.0010
3234.00,0.0010
3233.00,0.0010
3232.00,0.0010
3231.00,0.0010
3230.00,0.0010
3229.00,0.0010
3228.00,0.0010
3227.00,0.0010
3226.00,0.0009
3225.00,0.0009
3224.00,0.0010
3223.00,0.0010
3222.00,0.0010
3221.00,0.0010
3220.00,0.0009
3219.00,0.0009
3218.00,0.0009
3217.00,0.0009
3216.00,0.0009
3215.00,0.0009
3214.00,0.0009
3213.00,0.0009
3212.00,0.0009
3211.00,0.0010
3210.00,0.0010
3209.00,0.0010
3208.00,0.0010
3207.00,0.0010
3206.00,0.0010
3205.00,0.0010
3204.00,0.0010
3203.00,0.0010
3202.00,0.0010
3201.00,0.0010
3200.00,0.0010
3199.00,0.0010
3198.00,0.0010
3197.00,0.0010
3196.00,0.0010
3195.00,0.0010
3194.00,0.0010
3193.00,0.0010
3192.00,0.0010
3191.00,0.0010
3190.00,0.0010
3189.00,0.0010
3188.00,0.0010
3187.00,0.0010
3186.00,0.0010
3185.00,0.0010
3184.00,0.0009
3183.00,0.0009
3182.00,0.0009
3181.00,0.0009
3180.00,0.0009
3179.00,0.0009
3178.00,0.0009
3177.00,0.0009
3176.00,0.0009
3175.00,0.0010
3174.00,0.0010
3173.00,0.0010
3172.00,0.0010
3171.00,0.0010
3170.00,0.0010
3169.00,0.0010
3168.00,0.0010
3167.00,0.0010
3166.00,0.0010
3165.00,0.0010
3164.00,0.0010
3163.00,0.0010
3162.00,0.0011
3161.00,0.0011
3160.00,0.0011
3159.00,0.0010
3158.00,0.0010
3157.00,0.0010
3156.00,0.0010
3155.00,0.0010
3154.00,0.0010
3153.00,0.0010
3152.00,0.0010
3151.00,0.0010
3150.00,0.0010
3149.00,0.0010
3148.00,0.0010
3147.00,0.0010
3146.00,0.0010
3145.00,0.0010
3144.00,0.0010
3143.00,0.0010
3142.00,0.0010
3141.00,0.0009
3140.00,0.0009
3139.00,0.0009
3138.00,0.0009
3137.00,0.0009
3136.00,0.0009
3135.00,0.0009
3134.00,0.0009
3133.00,0.0009
3132.00,0.0009
3131.00,0.0009
3130.00,0.0010
3129.00,0.0010
3128.00,0.0010
3127.00,0.0010
3126.00,0.0010
3125.00,0.0010
3124.00,0.0010
3123.00,0.0010
3122.00,0.0010
3121.00,0.0010
3120.00,0.0011
3119.00,0.0011
3118.00,0.0011
3117.00,0.0012
3116.00,0.0012
3115.00,0.0012
3114.00,0.0013
3113.00,0.0014
3112.00,0.0014
3111.00,0.0015
3110.00,0.0016
3109.00,0.0017
3108.00,0.0018
3107.00,0.0019
3106.00,0.0020
3105.00,0.0021
3104.00,0.0022
3103.00,0.0022
3102.00,0.0022
3101.00,0.0022
3100.00,0.0022
3099.00,0.0021
3098.00,0.0021
3097.00,0.0021
3096.00,0.0021
3095.00,0.0021
3094.00,0.0022
3093.00,0.0023
3092.00,0.0024
3091.00,0.0026
3090.00,0.0028
3089.00,0.0031
3088.00,0.0034
3087.00,0.0038
3086.00,0.0042
3085.00,0.0045
3084.00,0.0048
3083.00,0.0050
3082.00,0.0051
3081.00,0.0050
3080.00,0.0049
3079.00,0.0047
3078.00,0.0045
3077.00,0.0043
3076.00,0.0041
3075.00,0.0039
3074.00,0.0038
3073.00,0.0038
3072.00,0.0038
3071.00,0.0039
3070.00,0.0040
3069.00,0.0042
3068.00,0.0045
3067.00,0.0047
3066.00,0.0050
3065.00,0.0054
3064.00,0.0058
3063.00,0.0061
3062.00,0.0065
3061.00,0.0067
3060.00,0.0069
3059.00,0.0069
3058.00,0.0068
3057.00,0.0066
3056.00,0.0062
3055.00,0.0059
3054.00,0.0055
3053.00,0.0052
3052.00,0.0049
3051.00,0.0046
3050.00,0.0043
3049.00,0.0041
3048.00,0.0039
3047.00,0.0038
3046.00,0.0037
3045.00,0.0037
3044.00,0.0037
3043.00,0.0038
3042.00,0.0039
3041.00,0.0040
3040.00,0.0042
3039.00,0.0045
3038.00,0.0048
3037.00,0.0051
3036.00,0.0056
3035.00,0.0061
3034.00,0.0067
3033.00,0.0074
3032.00,0.0081
3031.00,0.0090
3030.00,0.0099
3029.00,0.0109
3028.00,0.0117
3027.00,0.0125
3026.00,0.0130
3025.00,0.0131
3024.00,0.0130
3023.00,0.0125
3022.00,0.0117
3021.00,0.0107
3020.00,0.0096
3019.00,0.0085
3018.00,0.0074
3017.00,0.0065
3016.00,0.0057
3015.00,0.0050
3014.00,0.0045
3013.00,0.0041
3012.00,0.0038
3011.00,0.0035
3010.00,0.0034
3009.00,0.0033
3008.00,0.0032
3007.00,0.0032
3006.00,0.0033
3005.00,0.0033
3004.00,0.0034
3003.00,0.0035
3002.00,0.0035
3001.00,0.0035
3000.00,0.0034
2999.00,0.0033
2998.00,0.0031
2997.00,0.0028
2996.00,0.0026
2995.00,0.0023
2994.00,0.0021
2993.00,0.0019
2992.00,0.0018
2991.00,0.0017
2990.00,0.0017
2989.00,0.0016
2988.00,0.0016
2987.00,0.0015
2986.00,0.0014
2985.00,0.0013
2984.00,0.0012
2983.00,0.0011
2982.00,0.0011
2981.00,0.0011
2980.00,0.0011
2979.00,0.0012
2978.00,0.0013
2977.00,0.0014
2976.00,0.0015
2975.00,0.0015
2974.00,0.0016
2973.00,0.0016
2972.00,0.0016
2971.00,0.0016
2970.00,0.0017
2969.00,0.0018
2968.00,0.0019
2967.00,0.0020
2966.00,0.0021
2965.00,0.0022
2964.00,0.0023
2963.00,0.0024
2962.00,0.0025
2961.00,0.0027
2960.00,0.0028
2959.00,0.0030
2958.00,0.0031
2957.00,0.0033
2956.00,0.0034
2955.00,0.0036
2954.00,0.0038
2953.00,0.0040
2952.00,0.0042
2951.00,0.0044
2950.00,0.0047
2949.00,0.0049
2948.00,0.0052
2947.00,0.0055
2946.00,0.0058
2945.00,0.0062
2944.00,0.0065
2943.00,0.0069
2942.00,0.0073
2941.00,0.0077
2940.00,0.0081
2939.00,0.0086
2938.00,0.0091
2937.00,0.0096
2936.00,0.0101
2935.00,0.0107
2934.00,0.0113
2933.00,0.0118
2932.00,0.0124
2931.00,0.0129
2930.00,0.0135
2929.00,0.0140
2928.00,0.0145
2927.00,0.0149
2926.00,0.0152
2925.00,0.0155
2924.00,0.0157
2923.00,0.0158
2922.00,0.0159
2921.00,0.0160
2920.00,0.0159
2919.00,0.0159
2918.00,0.0157
2917.00,0.0155
2916.00,0.0152
2915.00,0.0149
2914.00,0.0146
2913.00,0.0142
2912.00,0.0138
2911.00,0.0134
2910.00,0.0130
2909.00,0.0126
2908.00,0.0121
2907.00,0.0117
2906.00,0.0113
2905.00,0.0109
2904.00,0.0105
2903.00,0.0101
2902.00,0.0097
2901.00,0.0093
2900.00,0.0089
2899.00,0.0085
2898.00,0.0082
2897.00,0.0078
2896.00,0.0075
2895.00,0.0072
2894.00,0.0069
2893.00,0.0066
2892.00,0.0064
2891.00,0.0062
2890.00,0.0060
2889.00,0.0058
2888.00,0.0057
2887.00,0.0055
2886.00,0.0054
2885.00,0.0053
2884.00,0.0051
2883.00,0.0050
2882.00,0.0049
2881.00,0.0048
2880.00,0.0047
2879.00,0.0046
2878.00,0.0045
2877.00,0.0044
2876.00,0.0043
2875.00,0.0043
2874.00,0.0042
2873.00,0.0042
2872.00,0.0041
2871.00,0.0041
2870.00,0.0040
2869.00,0.0040
2868.00,0.0040
2867.00,0.0041
2866.00,0.0041
2865.00,0.0042
2864.00,0.0044
2863.00,0.0045
2862.00,0.0047
2861.00,0.0049
2860.00,0.0051
2859.00,0.0053
2858.00,0.0056
2857.00,0.0058
2856.00,0.0061
2855.00,0.0063
2854.00,0.0066
2853.00,0.0068
2852.00,0.0070
2851.00,0.0072
2850.00,0.0072
2849.00,0.0073
2848.00,0.0072
2847.00,0.0071
2846.00,0.0069
2845.00,0.0066
2844.00,0.0063
2843.00,0.0060
2842.00,0.0056
2841.00,0.0051
2840.00,0.0047
2839.00,0.0043
2838.00,0.0039
2837.00,0.0035
2836.00,0.0032
2835.00,0.0030
2834.00,0.0027
2833.00,0.0025
2832.00,0.0024
2831.00,0.0022
2830.00,0.0021
2829.00,0.0020
2828.00,0.0019
2827.00,0.0019
2826.00,0.0018
2825.00,0.0018
2824.00,0.0018
2823.00,0.0017
2822.00,0.0017
2821.00,0.0017
2820.00,0.0017
2819.00,0.0017
2818.00,0.0016
2817.00,0.0016
2816.00,0.0016
2815.00,0.0016
2814.00,0.0016
2813.00,0.0016
2812.00,0.0016
2811.00,0.0016
2810.00,0.0016
2809.00,0.0015
2808.00,0.0015
2807.00,0.0015
2806.00,0.0015
2805.00,0.0015
2804.00,0.0015
2803.00,0.0015
2802.00,0.0015
2801.00,0.0015
2800.00,0.0015
2799.00,0.0014
2798.00,0.0014
2797.00,0.0014
2796.00,0.0013
2795.00,0.0013
2794.00,0.0013
2793.00,0.0013
2792.00,0.0013
2791.00,0.0013
2790.00,0.0013
2789.00,0.0013
2788.00,0.0013
2787.00,0.0013
2786.00,0.0013
2785.00,0.0013
2784.00,0.0013
2783.00,0.0013
2782.00,0.0013
2781.00,0.0013
2780.00,0.0013
2779.00,0.0013
2778.00,0.0013
2777.00,0.0013
2776.00,0.0013
2775.00,0.0013
2774.00,0.0013
2773.00,0.0013
2772.00,0.0013
2771.00,0.0012
2770.00,0.0012
2769.00,0.0012
2768.00,0.0012
2767.00,0.0012
2766.00,0.0012
2765.00,0.0012
2764.00,0.0012
2763.00,0.0012
2762.00,0.0012
2761.00,0.0012
2760.00,0.0012
2759.00,0.0012
2758.00,0.0012
2757.00,0.0012
2756.00,0.0012
2755.00,0.0012
2754.00,0.0012
2753.00,0.0012
2752.00,0.0011
2751.00,0.0011
2750.00,0.0011
2749.00,0.0011
2748.00,0.0012
2747.00,0.0012
2746.00,0.0012
2745.00,0.0012
2744.00,0.0012
2743.00,0.0012
2742.00,0.0012
2741.00,0.0012
2740.00,0.0012
2739.00,0.0012
2738.00,0.0012
2737.00,0.0012
2736.00,0.0011
2735.00,0.0011
2734.00,0.0011
2733.00,0.0012
2732.00,0.0012
2731.00,0.0012
2730.00,0.0012
2729.00,0.0012
2728.00,0.0012
2727.00,0.0012
2726.00,0.0012
2725.00,0.0012
2724.00,0.0012
2723.00,0.0012
2722.00,0.0012
2721.00,0.0012
2720.00,0.0012
2719.00,0.0012
2718.00,0.0012
2717.00,0.0012
2716.00,0.0012
2715.00,0.0012
2714.00,0.0012
2713.00,0.0012
2712.00,0.0012
2711.00,0.0012
2710.00,0.0012
2709.00,0.0012
2708.00,0.0012
2707.00,0.0012
2706.00,0.0012
2705.00,0.0012
2704.00,0.0012
2703.00,0.0011
2702.00,0.0011
2701.00,0.0011
2700.00,0.0012
2699.00,0.0012
2698.00,0.0012
2697.00,0.0012
2696.00,0.0012
2695.00,0.0011
2694.00,0.0011
2693.00,0.0011
2692.00,0.0011
2691.00,0.0011
2690.00,0.0011
2689.00,0.0011
2688.00,0.0012
2687.00,0.0012
2686.00,0.0012
2685.00,0.0012
2684.00,0.0012
2683.00,0.0012
2682.00,0.0012
2681.00,0.0012
2680.00,0.0012
2679.00,0.0012
2678.00,0.0012
2677.00,0.0012
2676.00,0.0012
2675.00,0.0012
2674.00,0.0012
2673.00,0.0012
2672.00,0.0012
2671.00,0.0012
2670.00,0.0012
2669.00,0.0012
2668.00,0.0012
2667.00,0.0013
2666.00,0.0013
2665.00,0.0013
2664.00,0.0014
2663.00,0.0014
2662.00,0.0015
2661.00,0.0015
2660.00,0.0015
2659.00,0.0015
2658.00,0.0016
2657.00,0.0016
2656.00,0.0016
2655.00,0.0016
2654.00,0.0016
2653.00,0.0017
2652.00,0.0017
2651.00,0.0017
2650.00,0.0017
2649.00,0.0017
2648.00,0.0017
2647.00,0.0017
2646.00,0.0017
2645.00,0.0017
2644.00,0.0017
2643.00,0.0017
2642.00,0.0017
2641.00,0.0017
2640.00,0.0017
2639.00,0.0017
2638.00,0.0016
2637.00,0.0016
2636.00,0.0016
2635.00,0.0016
2634.00,0.0016
2633.00,0.0016
2632.00,0.0017
2631.00,0.0017
2630.00,0.0017
2629.00,0.0017
2628.00,0.0017
2627.00,0.0016
2626.00,0.0016
2625.00,0.0016
2624.00,0.0016
2623.00,0.0016
2622.00,0.0015
2621.00,0.0015
2620.00,0.0015
2619.00,0.0015
2618.00,0.0015
2617.00,0.0015
2616.00,0.0015
2615.00,0.0015
2614.00,0.0015
2613.00,0.0014
2612.00,0.0014
2611.00,0.0014
2610.00,0.0014
2609.00,0.0014
2608.00,0.0014
2607.00,0.0014
2606.00,0.0015
2605.00,0.0015
2604.00,0.0015
2603.00,0.0015
2602.00,0.0015
2601.00,0.0015
2600.00,0.0015
2599.00,0.0014
2598.00,0.0014
2597.00,0.0014
2596.00,0.0014
2595.00,0.0014
2594.00,0.0014
2593.00,0.0014
2592.00,0.0014
2591.00,0.0014
2590.00,0.0014
2589.00,0.0014
2588.00,0.0013
2587.00,0.0013
2586.00,0.0013
2585.00,0.0013
2584.00,0.0013
2583.00,0.0013
2582.00,0.0013
2581.00,0.0013
2580.00,0.0013
2579.00,0.0012
2578.00,0.0012
2577.00,0.0012
2576.00,0.0012
2575.00,0.0012
2574.00,0.0012
2573.00,0.0012
2572.00,0.0012
2571.00,0.0012
2570.00,0.0011
2569.00,0.0011
2568.00,0.0011
2567.00,0.0011
2566.00,0.0011
2565.00,0.0011
2564.00,0.0011
2563.00,0.0011
2562.00,0.0011
2561.00,0.0011
2560.00,0.0011
2559.00,0.0011
2558.00,0.0011
2557.00,0.0011
2556.00,0.0011
2555.00,0.0011
2554.00,0.0011
2553.00,0.0011
2552.00,0.0011
2551.00,0.0011
2550.00,0.0011
2549.00,0.0011
2548.00,0.0011
2547.00,0.0011
2546.00,0.0010
2545.00,0.0010
2544.00,0.0010
2543.00,0.0010
2542.00,0.0010
2541.00,0.0010
2540.00,0.0010
2539.00,0.0010
2538.00,0.0010
2537.00,0.0010
2536.00,0.0009
2535.00,0.0009
2534.00,0.0009
2533.00,0.0010
2532.00,0.0010
2531.00,0.0010
2530.00,0.0010
2529.00,0.0010
2528.00,0.0010
2527.00,0.0010
2526.00,0.0010
2525.00,0.0010
2524.00,0.0010
2523.00,0.0010
2522.00,0.0010
2521.00,0.0010
2520.00,0.0010
2519.00,0.0010
2518.00,0.0009
2517.00,0.0009
2516.00,0.0009
2515.00,0.0009
2514.00,0.0009
2513.00,0.0009
2512.00,0.0009
2511.00,0.0009
2510.00,0.0009
2509.00,0.0009
2508.00,0.0009
2507.00,0.0009
2506.00,0.0009
2505.00,0.0009
2504.00,0.0009
2503.00,0.0009
2502.00,0.0009
2501.00,0.0009
2500.00,0.0009
2499.00,0.0009
2498.00,0.0010
2497.00,0.0010
2496.00,0.0010
2495.00,0.0010
2494.00,0.0009
2493.00,0.0009
2492.00,0.0009
2491.00,0.0009
2490.00,0.0009
2489.00,0.0009
2488.00,0.0009
2487.00,0.0009
2486.00,0.0009
2485.00,0.0009
2484.00,0.0009
2483.00,0.0009
2482.00,0.0009
2481.00,0.0010
2480.00,0.0010
2479.00,0.0010
2478.00,0.0009
2477.00,0.0009
2476.00,0.0008
2475.00,0.0008
2474.00,0.0008
2473.00,0.0008
2472.00,0.0008
2471.00,0.0008
2470.00,0.0008
2469.00,0.0008
2468.00,0.0008
2467.00,0.0008
2466.00,0.0008
2465.00,0.0009
2464.00,0.0009
2463.00,0.0009
2462.00,0.0009
2461.00,0.0009
2460.00,0.0009
2459.00,0.0010
2458.00,0.0010
2457.00,0.0010
2456.00,0.0010
2455.00,0.0010
2454.00,0.0010
2453.00,0.0010
2452.00,0.0010
2451.00,0.0010
2450.00,0.0009
2449.00,0.0009
2448.00,0.0009
2447.00,0.0008
2446.00,0.0008
2445.00,0.0008
2444.00,0.0008
2443.00,0.0008
2442.00,0.0008
2441.00,0.0008
2440.00,0.0008
2439.00,0.0008
2438.00,0.0008
2437.00,0.0008
2436.00,0.0008
2435.00,0.0008
2434.00,0.0007
2433.00,0.0007
2432.00,0.0007
2431.00,0.0007
2430.00,0.0007
2429.00,0.0007
2428.00,0.0007
2427.00,0.0007
2426.00,0.0007
2425.00,0.0007
2424.00,0.0007
2423.00,0.0007
2422.00,0.0007
2421.00,0.0007
2420.00,0.0007
2419.00,0.0007
2418.00,0.0007
2417.00,0.0006
2416.00,0.0006
2415.00,0.0006
2414.00,0.0006
2413.00,0.0007
2412.00,0.0007
2411.00,0.0007
2410.00,0.0007
2409.00,0.0006
2408.00,0.0006
2407.00,0.0005
2406.00,0.0005
2405.00,0.0005
2404.00,0.0005
2403.00,0.0005
2402.00,0.0005
2401.00,0.0005
2400.00,0.0005
2399.00,0.0006
2398.00,0.0006
2397.00,0.0006
2396.00,0.0006
2395.00,0.0006
2394.00,0.0006
2393.00,0.0006
2392.00,0.0005
2391.00,0.0005
2390.00,0.0005
2389.00,0.0005
2388.00,0.0005
2387.00,0.0005
2386.00,0.0005
2385.00,0.0004
2384.00,0.0004
2383.00,0.0004
2382.00,0.0004
2381.00,0.0003
2380.00,0.0003
2379.00,0.0003
2378.00,0.0003
2377.00,0.0003
2376.00,0.0003
2375.00,0.0004
2374.00,0.0004
2373.00,0.0003
2372.00,0.0003
2371.00,0.0003
2370.00,0.0002
2369.00,0.0002
2368.00,0.0001
2367.00,0.0001
2366.00,0.0002
2365.00,0.0002
2364.00,0.0003
2363.00,0.0004
2362.00,0.0004
2361.00,0.0004
2360.00,0.0004
2359.00,0.0004
2358.00,0.0005
2357.00,0.0005
2356.00,0.0005
2355.00,0.0006
2354.00,0.0005
2353.00,0.0005
2352.00,0.0005
2351.00,0.0005
2350.00,0.0005
2349.00,0.0006
2348.00,0.0007
2347.00,0.0007
2346.00,0.0007
2345.00,0.0007
2344.00,0.0008
2343.00,0.0008
2342.00,0.0008
2341.00,0.0009
2340.00,0.0009
2339.00,0.0009
2338.00,0.0010
2337.00,0.0009
2336.00,0.0009
2335.00,0.0009
2334.00,0.0009
2333.00,0.0009
2332.00,0.0008
2331.00,0.0008
2330.00,0.0008
2329.00,0.0010
2328.00,0.0013
2327.00,0.0017
2326.00,0.0020
2325.00,0.0021
2324.00,0.0021
2323.00,0.0020
2322.00,0.0018
2321.00,0.0017
2320.00,0.0016
2319.00,0.0016
2318.00,0.0015
2317.00,0.0015
2316.00,0.0014
2315.00,0.0014
2314.00,0.0014
2313.00,0.0014
2312.00,0.0014
2311.00,0.0014
2310.00,0.0014
2309.00,0.0013
2308.00,0.0013
2307.00,0.0012
2306.00,0.0012
2305.00,0.0012
2304.00,0.0012
2303.00,0.0012
2302.00,0.0012
2301.00,0.0012
2300.00,0.0012
2299.00,0.0013
2298.00,0.0014
2297.00,0.0015
2296.00,0.0016
2295.00,0.0017
2294.00,0.0017
2293.00,0.0018
2292.00,0.0019
2291.00,0.0019
2290.00,0.0019
2289.00,0.0020
2288.00,0.0020
2287.00,0.0021
2286.00,0.0021
2285.00,0.0020
2284.00,0.0019
2283.00,0.0018
2282.00,0.0016
2281.00,0.0016
2280.00,0.0016
2279.00,0.0016
2278.00,0.0016
2277.00,0.0015
2276.00,0.0015
2275.00,0.0014
2274.00,0.0014
2273.00,0.0014
2272.00,0.0013
2271.00,0.0013
2270.00,0.0014
2269.00,0.0014
2268.00,0.0014
2267.00,0.0013
2266.00,0.0012
2265.00,0.0011
2264.00,0.0011
2263.00,0.0011
2262.00,0.0011
2261.00,0.0012
2260.00,0.0013
2259.00,0.0013
2258.00,0.0013
2257.00,0.0012
2256.00,0.0011
2255.00,0.0010
2254.00,0.0009
2253.00,0.0009
2252.00,0.0010
2251.00,0.0010
2250.00,0.0011
2249.00,0.0011
2248.00,0.0011
2247.00,0.0011
2246.00,0.0011
2245.00,0.0011
2244.00,0.0011
2243.00,0.0012
2242.00,0.0011
2241.00,0.0011
2240.00,0.0010
2239.00,0.0009
2238.00,0.0009
2237.00,0.0009
2236.00,0.0010
2235.00,0.0010
2234.00,0.0011
2233.00,0.0010
2232.00,0.0010
2231.00,0.0009
2230.00,0.0009
2229.00,0.0009
2228.00,0.0009
2227.00,0.0010
2226.00,0.0010
2225.00,0.0010
2224.00,0.0010
2223.00,0.0010
2222.00,0.0010
2221.00,0.0009
2220.00,0.0009
2219.00,0.0009
2218.00,0.0009
2217.00,0.0009
2216.00,0.0010
2215.00,0.0010
2214.00,0.0009
2213.00,0.0009
2212.00,0.0009
2211.00,0.0009
2210.00,0.0009
2209.00,0.0010
2208.00,0.0009
2207.00,0.0009
2206.00,0.0008
2205.00,0.0008
2204.00,0.0009
2203.00,0.0011
2202.00,0.0012
2201.00,0.0011
2200.00,0.0010
2199.00,0.0009
2198.00,0.0009
2197.00,0.0009
2196.00,0.0010
2195.00,0.0010
2194.00,0.0010
2193.00,0.0010
2192.00,0.0011
2191.00,0.0011
2190.00,0.0012
2189.00,0.0013
2188.00,0.0013
2187.00,0.0014
2186.00,0.0013
2185.00,0.0012
2184.00,0.0010
2183.00,0.0008
2182.00,0.0007
2181.00,0.0007
2180.00,0.0007
2179.00,0.0008
2178.00,0.0007
2177.00,0.0006
2176.00,0.0005
2175.00,0.0006
2174.00,0.0007
2173.00,0.0009
2172.00,0.0012
2171.00,0.0015
2170.00,0.0017
2169.00,0.0017
2168.00,0.0016
2167.00,0.0013
2166.00,0.0012
2165.00,0.0013
2164.00,0.0016
2163.00,0.0018
2162.00,0.0015
2161.00,0.0006
2160.00,-0.0007
2159.00,-0.0018
2158.00,-0.0023
2157.00,-0.0022
2156.00,-0.0019
2155.00,-0.0015
2154.00,-0.0013
2153.00,-0.0011
2152.00,-0.0009
2151.00,-0.0008
2150.00,-0.0008
2149.00,-0.0009
2148.00,-0.0009
2147.00,-0.0010
2146.00,-0.0011
2145.00,-0.0010
2144.00,-0.0009
2143.00,-0.0009
2142.00,-0.0008
2141.00,-0.0008
2140.00,-0.0008
2139.00,-0.0008
2138.00,-0.0009
2137.00,-0.0010
2136.00,-0.0011
2135.00,-0.0013
2134.00,-0.0014
2133.00,-0.0014
2132.00,-0.0012
2131.00,-0.0010
2130.00,-0.0008
2129.00,-0.0006
2128.00,-0.0004
2127.00,-0.0003
2126.00,-0.0002
2125.00,-0.0001
2124.00,-0.0001
2123.00,-0.0001
2122.00,-0.0001
2121.00,0.0000
2120.00,0.0001
2119.00,0.0003
2118.00,0.0004
2117.00,0.0005
2116.00,0.0006
2115.00,0.0007
2114.00,0.0007
2113.00,0.0007
2112.00,0.0006
2111.00,0.0006
2110.00,0.0006
2109.00,0.0006
2108.00,0.0006
2107.00,0.0007
2106.00,0.0007
2105.00,0.0007
2104.00,0.0007
2103.00,0.0006
2102.00,0.0006
2101.00,0.0006
2100.00,0.0006
2099.00,0.0005
2098.00,0.0003
2097.00,0.0002
2096.00,0.0001
2095.00,0.0001
2094.00,0.0001
2093.00,0.0001
2092.00,0.0002
2091.00,0.0002
2090.00,0.0003
2089.00,0.0004
2088.00,0.0004
2087.00,0.0005
2086.00,0.0004
2085.00,0.0005
2084.00,0.0005
2083.00,0.0006
2082.00,0.0007
2081.00,0.0008
2080.00,0.0009
2079.00,0.0009
2078.00,0.0008
2077.00,0.0008
2076.00,0.0008
2075.00,0.0007
2074.00,0.0007
2073.00,0.0006
2072.00,0.0006
2071.00,0.0005
2070.00,0.0005
2069.00,0.0004
2068.00,0.0004
2067.00,0.0004
2066.00,0.0004
2065.00,0.0004
2064.00,0.0005
2063.00,0.0005
2062.00,0.0005
2061.00,0.0005
2060.00,0.0004
2059.00,0.0004
2058.00,0.0004
2057.00,0.0004
2056.00,0.0003
2055.00,0.0004
2054.00,0.0006
2053.00,0.0010
2052.00,0.0013
2051.00,0.0014
2050.00,0.0012
2049.00,0.0009
2048.00,0.0006
2047.00,0.0005
2046.00,0.0005
2045.00,0.0005
2044.00,0.0006
2043.00,0.0006
2042.00,0.0006
2041.00,0.0006
2040.00,0.0006
2039.00,0.0006
2038.00,0.0005
2037.00,0.0004
2036.00,0.0003
2035.00,0.0002
2034.00,0.0001
2033.00,0.0002
2032.00,0.0003
2031.00,0.0004
2030.00,0.0003
2029.00,0.0002
2028.00,0.0002
2027.00,0.0003
2026.00,0.0003
2025.00,0.0002
2024.00,0.0001
2023.00,0.0001
2022.00,0.0000
2021.00,0.0001
2020.00,0.0002
2019.00,0.0002
2018.00,0.0002
2017.00,0.0002
2016.00,0.0002
2015.00,0.0002
2014.00,0.0002
2013.00,0.0002
2012.00,0.0003
2011.00,0.0004
2010.00,0.0004
2009.00,0.0002
2008.00,-0.0001
2007.00,-0.0004
2006.00,-0.0007
2005.00,-0.0009
2004.00,-0.0008
2003.00,-0.0007
2002.00,-0.0004
2001.00,-0.0002
2000.00,0.0001
1999.00,0.0003
1998.00,0.0003
1997.00,0.0003
1996.00,0.0002
1995.00,0.0001
1994.00,0.0001
1993.00,0.0002
1992.00,0.0004
1991.00,0.0006
1990.00,0.0007
1989.00,0.0008
1988.00,0.0008
1987.00,0.0009
1986.00,0.0009
1985.00,0.0010
1984.00,0.0011
1983.00,0.0014
1982.00,0.0017
1981.00,0.0018
1980.00,0.0016
1979.00,0.0011
1978.00,0.0005
1977.00,-0.0000
1976.00,-0.0002
1975.00,-0.0002
1974.00,-0.0003
1973.00,-0.0003
1972.00,-0.0003
1971.00,-0.0003
1970.00,-0.0003
1969.00,-0.0002
1968.00,-0.0002
1967.00,-0.0000
1966.00,0.0000
1965.00,0.0002
1964.00,0.0003
1963.00,0.0004
1962.00,0.0003
1961.00,0.0001
1960.00,-0.0000
1959.00,-0.0001
1958.00,-0.0000
1957.00,0.0002
1956.00,0.0004
1955.00,0.0006
1954.00,0.0008
1953.00,0.0009
1952.00,0.0010
1951.00,0.0010
1950.00,0.0010
1949.00,0.0011
1948.00,0.0013
1947.00,0.0015
1946.00,0.0016
1945.00,0.0017
1944.00,0.0017
1943.00,0.0017
1942.00,0.0016
1941.00,0.0016
1940.00,0.0016
1939.00,0.0015
1938.00,0.0014
1937.00,0.0013
1936.00,0.0012
1935.00,0.0011
1934.00,0.0010
1933.00,0.0008
1932.00,0.0007
1931.00,0.0006
1930.00,0.0005
1929.00,0.0005
1928.00,0.0005
1927.00,0.0004
1926.00,0.0004
1925.00,0.0004
1924.00,0.0005
1923.00,0.0005
1922.00,0.0005
1921.00,0.0004
1920.00,0.0004
1919.00,0.0003
1918.00,0.0003
1917.00,0.0003
1916.00,0.0003
1915.00,0.0003
1914.00,0.0003
1913.00,0.0003
1912.00,0.0002
1911.00,0.0002
1910.00,0.0002
1909.00,0.0003
1908.00,0.0003
1907.00,0.0003
1906.00,0.0003
1905.00,0.0004
1904.00,0.0004
1903.00,0.0005
1902.00,0.0005
1901.00,0.0005
1900.00,0.0006
1899.00,0.0006
1898.00,0.0006
1897.00,0.0006
1896.00,0.0006
1895.00,0.0007
1894.00,0.0008
1893.00,0.0008
1892.00,0.0009
1891.00,0.0010
1890.00,0.0011
1889.00,0.0011
1888.00,0.0012
1887.00,0.0013
1886.00,0.0013
1885.00,0.0013
1884.00,0.0013
1883.00,0.0014
1882.00,0.0014
1881.00,0.0015
1880.00,0.0016
1879.00,0.0016
1878.00,0.0017
1877.00,0.0017
1876.00,0.0017
1875.00,0.0018
1874.00,0.0018
1873.00,0.0018
1872.00,0.0018
1871.00,0.0019
1870.00,0.0019
1869.00,0.0019
1868.00,0.0018
1867.00,0.0018
1866.00,0.0017
1865.00,0.0016
1864.00,0.0015
1863.00,0.0015
1862.00,0.0014
1861.00,0.0013
1860.00,0.0012
1859.00,0.0012
1858.00,0.0012
1857.00,0.0011
1856.00,0.0010
1855.00,0.0009
1854.00,0.0008
1853.00,0.0007
1852.00,0.0007
1851.00,0.0007
1850.00,0.0007
1849.00,0.0007
1848.00,0.0007
1847.00,0.0007
1846.00,0.0007
1845.00,0.0006
1844.00,0.0006
1843.00,0.0006
1842.00,0.0006
1841.00,0.0006
1840.00,0.0006
1839.00,0.0005
1838.00,0.0005
1837.00,0.0005
1836.00,0.0005
1835.00,0.0005
1834.00,0.0006
1833.00,0.0006
1832.00,0.0007
1831.00,0.0007
1830.00,0.0008
1829.00,0.0008
1828.00,0.0009
1827.00,0.0009
1826.00,0.0010
1825.00,0.0010
1824.00,0.0011
1823.00,0.0012
1822.00,0.0012
1821.00,0.0012
1820.00,0.0012
1819.00,0.0012
1818.00,0.0012
1817.00,0.0012
1816.00,0.0013
1815.00,0.0014
1814.00,0.0015
1813.00,0.0016
1812.00,0.0017
1811.00,0.0018
1810.00,0.0019
1809.00,0.0020
1808.00,0.0020
1807.00,0.0021
1806.00,0.0022
1805.00,0.0022
1804.00,0.0023
1803.00,0.0023
1802.00,0.0023
1801.00,0.0023
1800.00,0.0023
1799.00,0.0023
1798.00,0.0023
1797.00,0.0022
1796.00,0.0021
1795.00,0.0020
1794.00,0.0019
1793.00,0.0018
1792.00,0.0017
1791.00,0.0016
1790.00,0.0015
1789.00,0.0015
1788.00,0.0014
1787.00,0.0014
1786.00,0.0014
1785.00,0.0014
1784.00,0.0014
1783.00,0.0014
1782.00,0.0014
1781.00,0.0014
1780.00,0.0014
1779.00,0.0014
1778.00,0.0014
1777.00,0.0014
1776.00,0.0015
1775.00,0.0015
1774.00,0.0016
1773.00,0.0016
1772.00,0.0017
1771.00,0.0017
1770.00,0.0017
1769.00,0.0016
1768.00,0.0016
1767.00,0.0016
1766.00,0.0016
1765.00,0.0017
1764.00,0.0017
1763.00,0.0017
1762.00,0.0018
1761.00,0.0019
1760.00,0.0019
1759.00,0.0020
1758.00,0.0020
1757.00,0.0021
1756.00,0.0022
1755.00,0.0023
1754.00,0.0023
1753.00,0.0024
1752.00,0.0026
1751.00,0.0027
1750.00,0.0027
1749.00,0.0028
1748.00,0.0028
1747.00,0.0028
1746.00,0.0029
1745.00,0.0029
1744.00,0.0030
1743.00,0.0030
1742.00,0.0030
1741.00,0.0030
1740.00,0.0030
1739.00,0.0030
1738.00,0.0029
1737.00,0.0030
1736.00,0.0030
1735.00,0.0030
1734.00,0.0029
1733.00,0.0028
1732.00,0.0027
1731.00,0.0027
1730.00,0.0027
1729.00,0.0026
1728.00,0.0026
1727.00,0.0026
1726.00,0.0026
1725.00,0.0025
1724.00,0.0025
1723.00,0.0025
1722.00,0.0025
1721.00,0.0024
1720.00,0.0024
1719.00,0.0024
1718.00,0.0024
1717.00,0.0024
1716.00,0.0023
1715.00,0.0023
1714.00,0.0022
1713.00,0.0022
1712.00,0.0022
1711.00,0.0022
1710.00,0.0022
1709.00,0.0022
1708.00,0.0022
1707.00,0.0021
1706.00,0.0021
1705.00,0.0021
1704.00,0.0021
1703.00,0.0021
1702.00,0.0021
1701.00,0.0021
1700.00,0.0021
1699.00,0.0021
1698.00,0.0021
1697.00,0.0021
1696.00,0.0021
1695.00,0.0021
1694.00,0.0021
1693.00,0.0022
1692.00,0.0022
1691.00,0.0022
1690.00,0.0023
1689.00,0.0023
1688.00,0.0023
1687.00,0.0024
1686.00,0.0024
1685.00,0.0024
1684.00,0.0025
1683.00,0.0025
1682.00,0.0026
1681.00,0.0026
1680.00,0.0026
1679.00,0.0026
1678.00,0.0027
1677.00,0.0027
1676.00,0.0028
1675.00,0.0028
1674.00,0.0028
1673.00,0.0028
1672.00,0.0028
1671.00,0.0029
1670.00,0.0029
1669.00,0.0029
1668.00,0.0029
1667.00,0.0029
1666.00,0.0029
1665.00,0.0029
1664.00,0.0029
1663.00,0.0029
1662.00,0.0028
1661.00,0.0028
1660.00,0.0028
1659.00,0.0028
1658.00,0.0027
1657.00,0.0027
1656.00,0.0027
1655.00,0.0026
1654.00,0.0026
1653.00,0.0025
1652.00,0.0025
1651.00,0.0025
1650.00,0.0024
1649.00,0.0023
1648.00,0.0023
1647.00,0.0023
1646.00,0.0023
1645.00,0.0023
1644.00,0.0023
1643.00,0.0022
1642.00,0.0022
1641.00,0.0022
1640.00,0.0022
1639.00,0.0022
1638.00,0.0021
1637.00,0.0021
1636.00,0.0021
1635.00,0.0021
1634.00,0.0021
1633.00,0.0021
1632.00,0.0022
1631.00,0.0022
1630.00,0.0022
1629.00,0.0022
1628.00,0.0022
1627.00,0.0022
1626.00,0.0022
1625.00,0.0022
1624.00,0.0023
1623.00,0.0023
1622.00,0.0023
1621.00,0.0024
1620.00,0.0024
1619.00,0.0024
1618.00,0.0025
1617.00,0.0026
1616.00,0.0027
1615.00,0.0028
1614.00,0.0029
1613.00,0.0031
1612.00,0.0033
1611.00,0.0037
1610.00,0.0042
1609.00,0.0049
1608.00,0.0058
1607.00,0.0070
1606.00,0.0084
1605.00,0.0099
1604.00,0.0115
1603.00,0.0130
1602.00,0.0141
1601.00,0.0145
1600.00,0.0142
1599.00,0.0133
1598.00,0.0119
1597.00,0.0104
1596.00,0.0090
1595.00,0.0078
1594.00,0.0069
1593.00,0.0061
1592.00,0.0056
1591.00,0.0051
1590.00,0.0048
1589.00,0.0047
1588.00,0.0047
1587.00,0.0050
1586.00,0.0054
1585.00,0.0059
1584.00,0.0063
1583.00,0.0065
1582.00,0.0063
1581.00,0.0058
1580.00,0.0052
1579.00,0.0046
1578.00,0.0041
1577.00,0.0036
1576.00,0.0033
1575.00,0.0030
1574.00,0.0028
1573.00,0.0026
1572.00,0.0025
1571.00,0.0024
1570.00,0.0022
1569.00,0.0021
1568.00,0.0021
1567.00,0.0021
1566.00,0.0020
1565.00,0.0020
1564.00,0.0020
1563.00,0.0020
1562.00,0.0020
1561.00,0.0020
1560.00,0.0020
1559.00,0.0021
1558.00,0.0021
1557.00,0.0021
1556.00,0.0021
1555.00,0.0022
1554.00,0.0022
1553.00,0.0023
1552.00,0.0024
1551.00,0.0025
1550.00,0.0026
1549.00,0.0026
1548.00,0.0027
1547.00,0.0028
1546.00,0.0028
1545.00,0.0029
1544.00,0.0029
1543.00,0.0030
1542.00,0.0029
1541.00,0.0029
1540.00,0.0028
1539.00,0.0028
1538.00,0.0028
1537.00,0.0027
1536.00,0.0027
1535.00,0.0026
1534.00,0.0025
1533.00,0.0024
1532.00,0.0023
1531.00,0.0023
1530.00,0.0022
1529.00,0.0021
1528.00,0.0021
1527.00,0.0020
1526.00,0.0020
1525.00,0.0019
1524.00,0.0019
1523.00,0.0019
1522.00,0.0020
1521.00,0.0020
1520.00,0.0020
1519.00,0.0020
1518.00,0.0020
1517.00,0.0020
1516.00,0.0021
1515.00,0.0022
1514.00,0.0022
1513.00,0.0023
1512.00,0.0023
1511.00,0.0024
1510.00,0.0025
1509.00,0.0025
1508.00,0.0026
1507.00,0.0028
1506.00,0.0030
1505.00,0.0033
1504.00,0.0036
1503.00,0.0040
1502.00,0.0045
1501.00,0.0052
1500.00,0.0064
1499.00,0.0081
1498.00,0.0108
1497.00,0.0151
1496.00,0.0207
1495.00,0.0267
1494.00,0.0319
1493.00,0.0354
1492.00,0.0362
1491.00,0.0338
1490.00,0.0285
1489.00,0.0225
1488.00,0.0176
1487.00,0.0142
1486.00,0.0117
1485.00,0.0099
1484.00,0.0086
1483.00,0.0075
1482.00,0.0066
1481.00,0.0059
1480.00,0.0054
1479.00,0.0051
1478.00,0.0048
1477.00,0.0046
1476.00,0.0045
1475.00,0.0043
1474.00,0.0042
1473.00,0.0042
1472.00,0.0042
1471.00,0.0042
1470.00,0.0043
1469.00,0.0044
1468.00,0.0045
1467.00,0.0046
1466.00,0.0047
1465.00,0.0049
1464.00,0.0051
1463.00,0.0054
1462.00,0.0058
1461.00,0.0063
1460.00,0.0071
1459.00,0.0083
1458.00,0.0105
1457.00,0.0146
1456.00,0.0200
1455.00,0.0255
1454.00,0.0303
1453.00,0.0341
1452.00,0.0363
1451.00,0.0363
1450.00,0.0347
1449.00,0.0320
1448.00,0.0290
1447.00,0.0263
1446.00,0.0241
1445.00,0.0224
1444.00,0.0208
1443.00,0.0192
1442.00,0.0177
1441.00,0.0164
1440.00,0.0153
1439.00,0.0143
1438.00,0.0132
1437.00,0.0118
1436.00,0.0104
1435.00,0.0093
1434.00,0.0084
1433.00,0.0078
1432.00,0.0072
1431.00,0.0066
1430.00,0.0060
1429.00,0.0056
1428.00,0.0052
1427.00,0.0049
1426.00,0.0047
1425.00,0.0046
1424.00,0.0044
1423.00,0.0043
1422.00,0.0042
1421.00,0.0042
1420.00,0.0041
1419.00,0.0040
1418.00,0.0039
1417.00,0.0038
1416.00,0.0038
1415.00,0.0037
1414.00,0.0037
1413.00,0.0036
1412.00,0.0036
1411.00,0.0036
1410.00,0.0035
1409.00,0.0035
1408.00,0.0035
1407.00,0.0034
1406.00,0.0034
1405.00,0.0034
1404.00,0.0034
1403.00,0.0034
1402.00,0.0034
1401.00,0.0034
1400.00,0.0034
1399.00,0.0034
1398.00,0.0035
1397.00,0.0035
1396.00,0.0036
1395.00,0.0037
1394.00,0.0038
1393.00,0.0040
1392.00,0.0042
1391.00,0.0044
1390.00,0.0046
1389.00,0.0049
1388.00,0.0052
1387.00,0.0054
1386.00,0.0057
1385.00,0.0060
1384.00,0.0062
1383.00,0.0065
1382.00,0.0067
1381.00,0.0070
1380.00,0.0073
1379.00,0.0075
1378.00,0.0078
1377.00,0.0080
1376.00,0.0082
1375.00,0.0084
1374.00,0.0085
1373.00,0.0086
1372.00,0.0086
1371.00,0.0087
1370.00,0.0087
1369.00,0.0087
1368.00,0.0086
1367.00,0.0086
1366.00,0.0085
1365.00,0.0085
1364.00,0.0085
1363.00,0.0084
1362.00,0.0082
1361.00,0.0081
1360.00,0.0080
1359.00,0.0079
1358.00,0.0077
1357.00,0.0076
1356.00,0.0076
1355.00,0.0075
1354.00,0.0074
1353.00,0.0074
1352.00,0.0074
1351.00,0.0073
1350.00,0.0073
1349.00,0.0073
1348.00,0.0072
1347.00,0.0072
1346.00,0.0071
1345.00,0.0070
1344.00,0.0069
1343.00,0.0068
1342.00,0.0067
1341.00,0.0066
1340.00,0.0065
1339.00,0.0065
1338.00,0.0064
1337.00,0.0064
1336.00,0.0065
1335.00,0.0066
1334.00,0.0067
1333.00,0.0069
1332.00,0.0071
1331.00,0.0073
1330.00,0.0074
1329.00,0.0075
1328.00,0.0075
1327.00,0.0075
1326.00,0.0074
1325.00,0.0073
1324.00,0.0073
1323.00,0.0072
1322.00,0.0071
1321.00,0.0070
1320.00,0.0070
1319.00,0.0070
1318.00,0.0070
1317.00,0.0070
1316.00,0.0071
1315.00,0.0072
1314.00,0.0073
1313.00,0.0073
1312.00,0.0074
1311.00,0.0074
1310.00,0.0073
1309.00,0.0072
1308.00,0.0071
1307.00,0.0070
1306.00,0.0069
1305.00,0.0068
1304.00,0.0067
1303.00,0.0066
1302.00,0.0065
1301.00,0.0064
1300.00,0.0063
1299.00,0.0062
1298.00,0.0061
1297.00,0.0061
1296.00,0.0061
1295.00,0.0060
1294.00,0.0060
1293.00,0.0060
1292.00,0.0060
1291.00,0.0060
1290.00,0.0059
1289.00,0.0058
1288.00,0.0058
1287.00,0.0057
1286.00,0.0057
1285.00,0.0056
1284.00,0.0056
1283.00,0.0056
1282.00,0.0056
1281.00,0.0055
1280.00,0.0055
1279.00,0.0054
1278.00,0.0053
1277.00,0.0052
1276.00,0.0051
1275.00,0.0050
1274.00,0.0049
1273.00,0.0048
1272.00,0.0047
1271.00,0.0046
1270.00,0.0045
1269.00,0.0045
1268.00,0.0044
1267.00,0.0044
1266.00,0.0043
1265.00,0.0043
1264.00,0.0042
1263.00,0.0042
1262.00,0.0041
1261.00,0.0041
1260.00,0.0041
1259.00,0.0041
1258.00,0.0040
1257.00,0.0040
1256.00,0.0041
1255.00,0.0041
1254.00,0.0041
1253.00,0.0041
1252.00,0.0041
1251.00,0.0042
1250.00,0.0042
1249.00,0.0042
1248.00,0.0042
1247.00,0.0043
1246.00,0.0043
1245.00,0.0043
1244.00,0.0043
1243.00,0.0043
1242.00,0.0042
1241.00,0.0042
1240.00,0.0042
1239.00,0.0042
1238.00,0.0042
1237.00,0.0042
1236.00,0.0042
1235.00,0.0042
1234.00,0.0042
1233.00,0.0042
1232.00,0.0042
1231.00,0.0043
1230.00,0.0043
1229.00,0.0043
1228.00,0.0044
1227.00,0.0044
1226.00,0.0044
1225.00,0.0044
1224.00,0.0045
1223.00,0.0045
1222.00,0.0045
1221.00,0.0045
1220.00,0.0045
1219.00,0.0045
1218.00,0.0045
1217.00,0.0046
1216.00,0.0046
1215.00,0.0047
1214.00,0.0047
1213.00,0.0048
1212.00,0.0048
1211.00,0.0049
1210.00,0.0049
1209.00,0.0051
1208.00,0.0052
1207.00,0.0053
1206.00,0.0055
1205.00,0.0056
1204.00,0.0058
1203.00,0.0059
1202.00,0.0061
1201.00,0.0062
1200.00,0.0064
1199.00,0.0065
1198.00,0.0066
1197.00,0.0066
1196.00,0.0067
1195.00,0.0067
1194.00,0.0067
1193.00,0.0068
1192.00,0.0068
1191.00,0.0068
1190.00,0.0068
1189.00,0.0069
1188.00,0.0071
1187.00,0.0073
1186.00,0.0076
1185.00,0.0080
1184.00,0.0084
1183.00,0.0088
1182.00,0.0090
1181.00,0.0091
1180.00,0.0089
1179.00,0.0086
1178.00,0.0080
1177.00,0.0074
1176.00,0.0069
1175.00,0.0065
1174.00,0.0061
1173.00,0.0059
1172.00,0.0058
1171.00,0.0057
1170.00,0.0056
1169.00,0.0055
1168.00,0.0054
1167.00,0.0054
1166.00,0.0054
1165.00,0.0055
1164.00,0.0056
1163.00,0.0057
1162.00,0.0059
1161.00,0.0062
1160.00,0.0066
1159.00,0.0071
1158.00,0.0076
1157.00,0.0082
1156.00,0.0087
1155.00,0.0090
1154.00,0.0090
1153.00,0.0087
1152.00,0.0082
1151.00,0.0075
1150.00,0.0068
1149.00,0.0062
1148.00,0.0057
1147.00,0.0054
1146.00,0.0051
1145.00,0.0049
1144.00,0.0047
1143.00,0.0045
1142.00,0.0044
1141.00,0.0042
1140.00,0.0041
1139.00,0.0041
1138.00,0.0040
1137.00,0.0040
1136.00,0.0040
1135.00,0.0040
1134.00,0.0039
1133.00,0.0039
1132.00,0.0039
1131.00,0.0040
1130.00,0.0040
1129.00,0.0040
1128.00,0.0041
1127.00,0.0042
1126.00,0.0042
1125.00,0.0042
1124.00,0.0043
1123.00,0.0043
1122.00,0.0044
1121.00,0.0045
1120.00,0.0046
1119.00,0.0048
1118.00,0.0050
1117.00,0.0051
1116.00,0.0053
1115.00,0.0054
1114.00,0.0055
1113.00,0.0056
1112.00,0.0056
1111.00,0.0056
1110.00,0.0056
1109.00,0.0055
1108.00,0.0055
1107.00,0.0055
1106.00,0.0054
1105.00,0.0054
1104.00,0.0054
1103.00,0.0055
1102.00,0.0055
1101.00,0.0056
1100.00,0.0057
1099.00,0.0058
1098.00,0.0058
1097.00,0.0059
1096.00,0.0059
1095.00,0.0060
1094.00,0.0060
1093.00,0.0061
1092.00,0.0063
1091.00,0.0064
1090.00,0.0065
1089.00,0.0066
1088.00,0.0067
1087.00,0.0068
1086.00,0.0069
1085.00,0.0071
1084.00,0.0074
1083.00,0.0077
1082.00,0.0080
1081.00,0.0083
1080.00,0.0086
1079.00,0.0089
1078.00,0.0092
1077.00,0.0095
1076.00,0.0099
1075.00,0.0103
1074.00,0.0108
1073.00,0.0113
1072.00,0.0118
1071.00,0.0122
1070.00,0.0125
1069.00,0.0126
1068.00,0.0125
1067.00,0.0123
1066.00,0.0120
1065.00,0.0115
1064.00,0.0111
1063.00,0.0107
1062.00,0.0102
1061.00,0.0098
1060.00,0.0095
1059.00,0.0092
1058.00,0.0089
1057.00,0.0086
1056.00,0.0084
1055.00,0.0082
1054.00,0.0080
1053.00,0.0078
1052.00,0.0077
1051.00,0.0075
1050.00,0.0073
1049.00,0.0072
1048.00,0.0071
1047.00,0.0070
1046.00,0.0069
1045.00,0.0068
1044.00,0.0068
1043.00,0.0068
1042.00,0.0069
1041.00,0.0070
1040.00,0.0072
1039.00,0.0075
1038.00,0.0079
1037.00,0.0086
1036.00,0.0097
1035.00,0.0110
1034.00,0.0127
1033.00,0.0146
1032.00,0.0165
1031.00,0.0183
1030.00,0.0197
1029.00,0.0207
1028.00,0.0212
1027.00,0.0209
1026.00,0.0200
1025.00,0.0188
1024.00,0.0174
1023.00,0.0161
1022.00,0.0148
1021.00,0.0138
1020.00,0.0130
1019.00,0.0123
1018.00,0.0117
1017.00,0.0111
1016.00,0.0107
1015.00,0.0104
1014.00,0.0100
1013.00,0.0097
1012.00,0.0095
1011.00,0.0093
1010.00,0.0091
1009.00,0.0090
1008.00,0.0090
1007.00,0.0091
1006.00,0.0093
1005.00,0.0095
1004.00,0.0097
1003.00,0.0098
1002.00,0.0096
1001.00,0.0092
1000.00,0.0087
999.00,0.0082
998.00,0.0077
997.00,0.0074
996.00,0.0072
995.00,0.0072
994.00,0.0071
993.00,0.0071
992.00,0.0072
991.00,0.0073
990.00,0.0073
989.00,0.0074
988.00,0.0076
987.00,0.0078
986.00,0.0079
985.00,0.0081
984.00,0.0084
983.00,0.0086
982.00,0.0088
981.00,0.0089
980.00,0.0089
979.00,0.0089
978.00,0.0087
977.00,0.0086
976.00,0.0084
975.00,0.0082
974.00,0.0081
973.00,0.0080
972.00,0.0081
971.00,0.0082
970.00,0.0084
969.00,0.0086
968.00,0.0089
967.00,0.0092
966.00,0.0094
965.00,0.0095
964.00,0.0096
963.00,0.0095
962.00,0.0092
961.00,0.0089
960.00,0.0085
959.00,0.0081
958.00,0.0077
957.00,0.0074
956.00,0.0073
955.00,0.0072
954.00,0.0070
953.00,0.0070
952.00,0.0070
951.00,0.0070
950.00,0.0071
949.00,0.0071
948.00,0.0073
947.00,0.0074
946.00,0.0075
945.00,0.0076
944.00,0.0077
943.00,0.0077
942.00,0.0076
941.00,0.0075
940.00,0.0074
939.00,0.0073
938.00,0.0071
937.00,0.0069
936.00,0.0067
935.00,0.0065
934.00,0.0063
933.00,0.0061
932.00,0.0060
931.00,0.0059
930.00,0.0057
929.00,0.0057
928.00,0.0057
927.00,0.0057
926.00,0.0057
925.00,0.0058
924.00,0.0059
923.00,0.0061
922.00,0.0062
921.00,0.0064
920.00,0.0066
919.00,0.0069
918.00,0.0072
917.00,0.0076
916.00,0.0082
915.00,0.0089
914.00,0.0096
913.00,0.0104
912.00,0.0114
911.00,0.0124
910.00,0.0133
909.00,0.0141
908.00,0.0148
907.00,0.0152
906.00,0.0152
905.00,0.0149
904.00,0.0144
903.00,0.0136
902.00,0.0126
901.00,0.0115
900.00,0.0105
899.00,0.0095
898.00,0.0085
897.00,0.0077
896.00,0.0072
895.00,0.0068
894.00,0.0064
893.00,0.0062
892.00,0.0060
891.00,0.0058
890.00,0.0056
889.00,0.0054
888.00,0.0053
887.00,0.0052
886.00,0.0050
885.00,0.0049
884.00,0.0049
883.00,0.0048
882.00,0.0047
881.00,0.0046
880.00,0.0046
879.00,0.0046
878.00,0.0046
877.00,0.0045
876.00,0.0044
875.00,0.0044
874.00,0.0043
873.00,0.0042
872.00,0.0042
871.00,0.0042
870.00,0.0042
869.00,0.0042
868.00,0.0042
867.00,0.0042
866.00,0.0041
865.00,0.0041
864.00,0.0041
863.00,0.0042
862.00,0.0041
861.00,0.0041
860.00,0.0041
859.00,0.0042
858.00,0.0042
857.00,0.0042
856.00,0.0043
855.00,0.0044
854.00,0.0045
853.00,0.0047
852.00,0.0049
851.00,0.0052
850.00,0.0055
849.00,0.0060
848.00,0.0065
847.00,0.0069
846.00,0.0073
845.00,0.0077
844.00,0.0080
843.00,0.0082
842.00,0.0083
841.00,0.0083
840.00,0.0082
839.00,0.0079
838.00,0.0075
837.00,0.0070
836.00,0.0065
835.00,0.0061
834.00,0.0055
833.00,0.0051
832.00,0.0048
831.00,0.0046
830.00,0.0044
829.00,0.0042
828.00,0.0041
827.00,0.0040
826.00,0.0039
825.00,0.0039
824.00,0.0039
823.00,0.0038
822.00,0.0038
821.00,0.0038
820.00,0.0038
819.00,0.0039
818.00,0.0039
817.00,0.0039
816.00,0.0040
815.00,0.0040
814.00,0.0039
813.00,0.0038
812.00,0.0039
811.00,0.0039
810.00,0.0039
809.00,0.0040
808.00,0.0041
807.00,0.0042
806.00,0.0043
805.00,0.0043
804.00,0.0043
803.00,0.0044
802.00,0.0045
801.00,0.0046
800.00,0.0048
799.00,0.0050
798.00,0.0052
797.00,0.0053
796.00,0.0056
795.00,0.0059
794.00,0.0061
793.00,0.0064
792.00,0.0069
791.00,0.0073
790.00,0.0077
789.00,0.0081
788.00,0.0085
787.00,0.0090
786.00,0.0095
785.00,0.0100
784.00,0.0107
783.00,0.0113
782.00,0.0120
781.00,0.0128
780.00,0.0139
779.00,0.0150
778.00,0.0162
777.00,0.0176
776.00,0.0193
775.00,0.0210
774.00,0.0229
773.00,0.0249
772.00,0.0272
771.00,0.0296
770.00,0.0321
769.00,0.0346
768.00,0.0372
767.00,0.0397
766.00,0.0421
765.00,0.0445
764.00,0.0470
763.00,0.0495
762.00,0.0520
761.00,0.0545
760.00,0.0571
759.00,0.0594
758.00,0.0613
757.00,0.0628
756.00,0.0639
755.00,0.0644
754.00,0.0645
753.00,0.0643
752.00,0.0642
751.00,0.0640
750.00,0.0639
749.00,0.0639
748.00,0.0637
747.00,0.0629
746.00,0.0612
745.00,0.0586
744.00,0.0552
743.00,0.0512
742.00,0.0468
741.00,0.0425
740.00,0.0384
739.00,0.0347
738.00,0.0312
737.00,0.0279
736.00,0.0250
735.00,0.0221
734.00,0.0194
733.00,0.0168
732.00,0.0147
731.00,0.0129
730.00,0.0115
729.00,0.0104
728.00,0.0097
727.00,0.0091
726.00,0.0087
725.00,0.0083
724.00,0.0082
723.00,0.0082
722.00,0.0082
721.00,0.0082
720.00,0.0083
719.00,0.0084
718.00,0.0086
717.00,0.0089
716.00,0.0094
715.00,0.0101
714.00,0.0111
713.00,0.0126
712.00,0.0148
711.00,0.0177
710.00,0.0216
709.00,0.0268
708.00,0.0335
707.00,0.0416
706.00,0.0513
705.00,0.0627
704.00,0.0756
703.00,0.0900
702.00,0.1055
701.00,0.1219
700.00,0.1389
699.00,0.1559
698.00,0.1721
697.00,0.1868
696.00,0.1979
695.00,0.2030
694.00,0.1998
693.00,0.1882
692.00,0.1703
691.00,0.1497
690.00,0.1294
689.00,0.1116
688.00,0.0968
687.00,0.0850
686.00,0.0755
685.00,0.0679
684.00,0.0617
683.00,0.0566
682.00,0.0521
681.00,0.0483
680.00,0.0451
679.00,0.0423
678.00,0.0398
677.00,0.0378
676.00,0.0361
675.00,0.0346
674.00,0.0332
673.00,0.0319
672.00,0.0308
671.00,0.0299
670.00,0.0288
669.00,0.0277
668.00,0.0266
667.00,0.0256
666.00,0.0246
665.00,0.0238
664.00,0.0231
663.00,0.0223
662.00,0.0213
661.00,0.0205
660.00,0.0197
659.00,0.0188
658.00,0.0179
657.00,0.0171
656.00,0.0165
655.00,0.0159
654.00,0.0153
653.00,0.0148
652.00,0.0143
651.00,0.0138
650.00,0.0133
649.00,0.0128
648.00,0.0125
647.00,0.0122
646.00,0.0118
645.00,0.0115
644.00,0.0113
643.00,0.0112
642.00,0.0111
641.00,0.0111
640.00,0.0112
639.00,0.0113
638.00,0.0115
637.00,0.0118
636.00,0.0122
635.00,0.0126
634.00,0.0128
633.00,0.0129
632.00,0.0132
631.00,0.0135
630.00,0.0136
629.00,0.0138
628.00,0.0142
627.00,0.0144
626.00,0.0145
625.00,0.0145
624.00,0.0147
623.00,0.0150
622.00,0.0153
621.00,0.0154
620.00,0.0155
619.00,0.0153
618.00,0.0147
617.00,0.0142
616.00,0.0138
615.00,0.0136
614.00,0.0133
613.00,0.0130
612.00,0.0129
611.00,0.0127
610.00,0.0125
609.00,0.0123
608.00,0.0123
607.00,0.0122
606.00,0.0120
605.00,0.0119
604.00,0.0120
603.00,0.0122
602.00,0.0123
601.00,0.0124
600.00,0.0127
599.00,0.0129
598.00,0.0129
597.00,0.0129
596.00,0.0131
595.00,0.0134
594.00,0.0135
593.00,0.0137
592.00,0.0140
591.00,0.0142
590.00,0.0142
589.00,0.0143
588.00,0.0145
587.00,0.0148
586.00,0.0150
585.00,0.0153
584.00,0.0158
583.00,0.0162
582.00,0.0166
581.00,0.0171
580.00,0.0177
579.00,0.0182
578.00,0.0188
577.00,0.0195
576.00,0.0206
575.00,0.0216
574.00,0.0224
573.00,0.0232
572.00,0.0241
571.00,0.0251
570.00,0.0260
569.00,0.0270
568.00,0.0281
567.00,0.0292
566.00,0.0299
565.00,0.0306
564.00,0.0315
563.00,0.0325
562.00,0.0333
561.00,0.0342
560.00,0.0353
559.00,0.0363
558.00,0.0371
557.00,0.0381
556.00,0.0393
555.00,0.0404
554.00,0.0413
553.00,0.0423
552.00,0.0436
551.00,0.0450
550.00,0.0463
549.00,0.0478
548.00,0.0497
547.00,0.0518
546.00,0.0537
545.00,0.0558
544.00,0.0582
543.00,0.0607
542.00,0.0628
541.00,0.0649
540.00,0.0668
539.00,0.0682
538.00,0.0685
537.00,0.0682
536.00,0.0674
535.00,0.0656
534.00,0.0629
533.00,0.0598
532.00,0.0568
531.00,0.0535
530.00,0.0500
529.00,0.0467
528.00,0.0439
527.00,0.0411
526.00,0.0383
525.00,0.0357
524.00,0.0337
523.00,0.0320
522.00,0.0303
521.00,0.0289
520.00,0.0278
519.00,0.0267
518.00,0.0254
517.00,0.0244
516.00,0.0238
515.00,0.0233
514.00,0.0226
513.00,0.0219
512.00,0.0215
511.00,0.0210
510.00,0.0203
509.00,0.0196
508.00,0.0191
507.00,0.0185
506.00,0.0178
505.00,0.0172
504.00,0.0170
503.00,0.0167
502.00,0.0161
501.00,0.0156
500.00,0.0155
499.00,0.0153
498.00,0.0148
497.00,0.0144
496.00,0.0144
495.00,0.0143
494.00,0.0139
493.00,0.0135
492.00,0.0135
491.00,0.0135
490.00,0.0132
489.00,0.0129
488.00,0.0129
487.00,0.0128
486.00,0.0124
485.00,0.0122
484.00,0.0124
483.00,0.0125
482.00,0.0121
481.00,0.0118
480.00,0.0118
479.00,0.0118
478.00,0.0114
477.00,0.0111
476.00,0.0111
475.00,0.0112
474.00,0.0111
473.00,0.0112
472.00,0.0117
471.00,0.0119
470.00,0.0115
469.00,0.0111
468.00,0.0110
467.00,0.0109
466.00,0.0104
465.00,0.0101
464.00,0.0104
463.00,0.0105
462.00,0.0101
461.00,0.0098
460.00,0.0101
459.00,0.0104
458.00,0.0101
457.00,0.0098
456.00,0.0099
455.00,0.0098
454.00,0.0091
453.00,0.0088
452.00,0.0092
451.00,0.0096
450.00,0.0095
449.00,0.0094
448.00,0.0097
447.00,0.0098
446.00,0.0094
445.00,0.0090
444.00,0.0092
443.00,0.0092
442.00,0.0087
441.00,0.0085
440.00,0.0089
439.00,0.0094
438.00,0.0092
437.00,0.0089
436.00,0.0091
435.00,0.0091
434.00,0.0086
433.00,0.0083
432.00,0.0089
431.00,0.0094
430.00,0.0089
429.00,0.0084
428.00,0.0084
427.00,0.0085
426.00,0.0081
425.00,0.0080
424.00,0.0086
423.00,0.0091
422.00,0.0087
421.00,0.0086
420.00,0.0094
419.00,0.0096
418.00,0.0082
417.00,0.0070
416.00,0.0075
415.00,0.0082
414.00,0.0082
413.00,0.0082
412.00,0.0091
411.00,0.0098
410.00,0.0093
409.00,0.0090
408.00,0.0100
407.00,0.0110
406.00,0.0108
405.00,0.0105
404.00,0.0114
403.00,0.0120
402.00,0.0109
401.00,0.0094
400.00,0.0092
