Created as New Dataset,Sample 808 By YargerLab Date Thursday, July 10 2025
cm-1,A
4000.00,0.0012
3999.00,0.0013
3998.00,0.0013
3997.00,0.0013
3996.00,0.0013
3995.00,0.0012
3994.00,0.0012
3993.00,0.0012
3992.00,0.0012
3991.00,0.0012
3990.00,0.0012
3989.00,0.0012
3988.00,0.0012
3987.00,0.0012
3986.00,0.0012
3985.00,0.0012
3984.00,0.0012
3983.00,0.0012
3982.00,0.0012
3981.00,0.0012
3980.00,0.0012
3979.00,0.0012
3978.00,0.0012
3977.00,0.0012
3976.00,0.0012
3975.00,0.0012
3974.00,0.0012
3973.00,0.0012
3972.00,0.0012
3971.00,0.0012
3970.00,0.0012
3969.00,0.0012
3968.00,0.0012
3967.00,0.0012
3966.00,0.0012
3965.00,0.0012
3964.00,0.0012
3963.00,0.0012
3962.00,0.0012
3961.00,0.0012
3960.00,0.0012
3959.00,0.0012
3958.00,0.0012
3957.00,0.0012
3956.00,0.0012
3955.00,0.0012
3954.00,0.0012
3953.00,0.0012
3952.00,0.0012
3951.00,0.0012
3950.00,0.0012
3949.00,0.0012
3948.00,0.0012
3947.00,0.0012
3946.00,0.0012
3945.00,0.0012
3944.00,0.0012
3943.00,0.0012
3942.00,0.0012
3941.00,0.0012
3940.00,0.0012
3939.00,0.0012
3938.00,0.0012
3937.00,0.0012
3936.00,0.0012
3935.00,0.0013
3934.00,0.0012
3933.00,0.0012
3932.00,0.0012
3931.00,0.0012
3930.00,0.0012
3929.00,0.0012
3928.00,0.0012
3927.00,0.0012
3926.00,0.0012
3925.00,0.0012
3924.00,0.0012
3923.00,0.0012
3922.00,0.0012
3921.00,0.0013
3920.00,0.0013
3919.00,0.0013
3918.00,0.0013
3917.00,0.0012
3916.00,0.0012
3915.00,0.0012
3914.00,0.0012
3913.00,0.0012
3912.00,0.0012
3911.00,0.0012
3910.00,0.0012
3909.00,0.0012
3908.00,0.0012
3907.00,0.0012
3906.00,0.0012
3905.00,0.0012
3904.00,0.0012
3903.00,0.0012
3902.00,0.0012
3901.00,0.0012
3900.00,0.0012
3899.00,0.0012
3898.00,0.0012
3897.00,0.0012
3896.00,0.0012
3895.00,0.0012
3894.00,0.0012
3893.00,0.0012
3892.00,0.0012
3891.00,0.0012
3890.00,0.0012
3889.00,0.0012
3888.00,0.0012
3887.00,0.0012
3886.00,0.0011
3885.00,0.0012
3884.00,0.0012
3883.00,0.0012
3882.00,0.0012
3881.00,0.0011
3880.00,0.0012
3879.00,0.0012
3878.00,0.0012
3877.00,0.0012
3876.00,0.0012
3875.00,0.0012
3874.00,0.0012
3873.00,0.0013
3872.00,0.0013
3871.00,0.0012
3870.00,0.0012
3869.00,0.0012
3868.00,0.0013
3867.00,0.0012
3866.00,0.0012
3865.00,0.0012
3864.00,0.0012
3863.00,0.0012
3862.00,0.0012
3861.00,0.0012
3860.00,0.0012
3859.00,0.0012
3858.00,0.0013
3857.00,0.0013
3856.00,0.0013
3855.00,0.0013
3854.00,0.0013
3853.00,0.0012
3852.00,0.0012
3851.00,0.0013
3850.00,0.0012
3849.00,0.0012
3848.00,0.0012
3847.00,0.0012
3846.00,0.0012
3845.00,0.0012
3844.00,0.0012
3843.00,0.0013
3842.00,0.0013
3841.00,0.0013
3840.00,0.0013
3839.00,0.0013
3838.00,0.0013
3837.00,0.0012
3836.00,0.0013
3835.00,0.0013
3834.00,0.0013
3833.00,0.0012
3832.00,0.0012
3831.00,0.0012
3830.00,0.0012
3829.00,0.0012
3828.00,0.0012
3827.00,0.0012
3826.00,0.0012
3825.00,0.0013
3824.00,0.0013
3823.00,0.0013
3822.00,0.0013
3821.00,0.0013
3820.00,0.0014
3819.00,0.0014
3818.00,0.0014
3817.00,0.0013
3816.00,0.0013
3815.00,0.0013
3814.00,0.0013
3813.00,0.0012
3812.00,0.0012
3811.00,0.0012
3810.00,0.0013
3809.00,0.0013
3808.00,0.0013
3807.00,0.0012
3806.00,0.0013
3805.00,0.0013
3804.00,0.0013
3803.00,0.0013
3802.00,0.0013
3801.00,0.0013
3800.00,0.0013
3799.00,0.0013
3798.00,0.0013
3797.00,0.0012
3796.00,0.0012
3795.00,0.0012
3794.00,0.0012
3793.00,0.0012
3792.00,0.0012
3791.00,0.0012
3790.00,0.0012
3789.00,0.0012
3788.00,0.0012
3787.00,0.0012
3786.00,0.0012
3785.00,0.0012
3784.00,0.0013
3783.00,0.0013
3782.00,0.0013
3781.00,0.0013
3780.00,0.0013
3779.00,0.0012
3778.00,0.0012
3777.00,0.0012
3776.00,0.0012
3775.00,0.0013
3774.00,0.0013
3773.00,0.0013
3772.00,0.0014
3771.00,0.0013
3770.00,0.0013
3769.00,0.0013
3768.00,0.0013
3767.00,0.0013
3766.00,0.0013
3765.00,0.0013
3764.00,0.0013
3763.00,0.0013
3762.00,0.0013
3761.00,0.0013
3760.00,0.0013
3759.00,0.0012
3758.00,0.0012
3757.00,0.0012
3756.00,0.0013
3755.00,0.0013
3754.00,0.0014
3753.00,0.0014
3752.00,0.0014
3751.00,0.0014
3750.00,0.0014
3749.00,0.0014
3748.00,0.0014
3747.00,0.0014
3746.00,0.0013
3745.00,0.0013
3744.00,0.0013
3743.00,0.0013
3742.00,0.0014
3741.00,0.0013
3740.00,0.0014
3739.00,0.0014
3738.00,0.0014
3737.00,0.0014
3736.00,0.0014
3735.00,0.0014
3734.00,0.0013
3733.00,0.0013
3732.00,0.0013
3731.00,0.0013
3730.00,0.0013
3729.00,0.0013
3728.00,0.0013
3727.00,0.0013
3726.00,0.0012
3725.00,0.0012
3724.00,0.0012
3723.00,0.0012
3722.00,0.0012
3721.00,0.0012
3720.00,0.0012
3719.00,0.0012
3718.00,0.0012
3717.00,0.0012
3716.00,0.0012
3715.00,0.0012
3714.00,0.0012
3713.00,0.0013
3712.00,0.0013
3711.00,0.0013
3710.00,0.0013
3709.00,0.0013
3708.00,0.0012
3707.00,0.0012
3706.00,0.0012
3705.00,0.0012
3704.00,0.0012
3703.00,0.0012
3702.00,0.0012
3701.00,0.0012
3700.00,0.0012
3699.00,0.0012
3698.00,0.0012
3697.00,0.0012
3696.00,0.0012
3695.00,0.0012
3694.00,0.0012
3693.00,0.0012
3692.00,0.0012
3691.00,0.0012
3690.00,0.0012
3689.00,0.0011
3688.00,0.0011
3687.00,0.0011
3686.00,0.0011
3685.00,0.0011
3684.00,0.0011
3683.00,0.0011
3682.00,0.0011
3681.00,0.0011
3680.00,0.0012
3679.00,0.0013
3678.00,0.0013
3677.00,0.0013
3676.00,0.0013
3675.00,0.0013
3674.00,0.0013
3673.00,0.0013
3672.00,0.0012
3671.00,0.0012
3670.00,0.0011
3669.00,0.0011
3668.00,0.0012
3667.00,0.0012
3666.00,0.0012
3665.00,0.0012
3664.00,0.0012
3663.00,0.0012
3662.00,0.0012
3661.00,0.0012
3660.00,0.0012
3659.00,0.0012
3658.00,0.0013
3657.00,0.0012
3656.00,0.0012
3655.00,0.0013
3654.00,0.0013
3653.00,0.0013
3652.00,0.0013
3651.00,0.0014
3650.00,0.0014
3649.00,0.0014
3648.00,0.0014
3647.00,0.0014
3646.00,0.0014
3645.00,0.0014
3644.00,0.0013
3643.00,0.0013
3642.00,0.0013
3641.00,0.0013
3640.00,0.0013
3639.00,0.0013
3638.00,0.0013
3637.00,0.0013
3636.00,0.0013
3635.00,0.0013
3634.00,0.0013
3633.00,0.0014
3632.00,0.0014
3631.00,0.0014
3630.00,0.0014
3629.00,0.0014
3628.00,0.0014
3627.00,0.0014
3626.00,0.0013
3625.00,0.0013
3624.00,0.0013
3623.00,0.0013
3622.00,0.0013
3621.00,0.0014
3620.00,0.0014
3619.00,0.0014
3618.00,0.0015
3617.00,0.0015
3616.00,0.0015
3615.00,0.0014
3614.00,0.0014
3613.00,0.0014
3612.00,0.0014
3611.00,0.0014
3610.00,0.0014
3609.00,0.0014
3608.00,0.0014
3607.00,0.0014
3606.00,0.0014
3605.00,0.0014
3604.00,0.0014
3603.00,0.0014
3602.00,0.0014
3601.00,0.0014
3600.00,0.0013
3599.00,0.0013
3598.00,0.0013
3597.00,0.0013
3596.00,0.0014
3595.00,0.0014
3594.00,0.0014
3593.00,0.0015
3592.00,0.0015
3591.00,0.0015
3590.00,0.0015
3589.00,0.0015
3588.00,0.0015
3587.00,0.0015
3586.00,0.0015
3585.00,0.0016
3584.00,0.0016
3583.00,0.0015
3582.00,0.0015
3581.00,0.0015
3580.00,0.0015
3579.00,0.0015
3578.00,0.0015
3577.00,0.0015
3576.00,0.0015
3575.00,0.0015
3574.00,0.0015
3573.00,0.0015
3572.00,0.0016
3571.00,0.0016
3570.00,0.0016
3569.00,0.0016
3568.00,0.0015
3567.00,0.0015
3566.00,0.0016
3565.00,0.0016
3564.00,0.0016
3563.00,0.0016
3562.00,0.0016
3561.00,0.0016
3560.00,0.0016
3559.00,0.0016
3558.00,0.0017
3557.00,0.0017
3556.00,0.0017
3555.00,0.0017
3554.00,0.0017
3553.00,0.0017
3552.00,0.0017
3551.00,0.0018
3550.00,0.0018
3549.00,0.0018
3548.00,0.0018
3547.00,0.0018
3546.00,0.0018
3545.00,0.0018
3544.00,0.0018
3543.00,0.0018
3542.00,0.0018
3541.00,0.0018
3540.00,0.0018
3539.00,0.0018
3538.00,0.0018
3537.00,0.0018
3536.00,0.0018
3535.00,0.0018
3534.00,0.0019
3533.00,0.0019
3532.00,0.0019
3531.00,0.0020
3530.00,0.0020
3529.00,0.0020
3528.00,0.0020
3527.00,0.0019
3526.00,0.0019
3525.00,0.0019
3524.00,0.0019
3523.00,0.0019
3522.00,0.0019
3521.00,0.0019
3520.00,0.0019
3519.00,0.0019
3518.00,0.0019
3517.00,0.0020
3516.00,0.0020
3515.00,0.0020
3514.00,0.0021
3513.00,0.0021
3512.00,0.0021
3511.00,0.0020
3510.00,0.0020
3509.00,0.0020
3508.00,0.0020
3507.00,0.0020
3506.00,0.0020
3505.00,0.0021
3504.00,0.0021
3503.00,0.0021
3502.00,0.0021
3501.00,0.0021
3500.00,0.0021
3499.00,0.0021
3498.00,0.0021
3497.00,0.0021
3496.00,0.0021
3495.00,0.0022
3494.00,0.0022
3493.00,0.0022
3492.00,0.0022
3491.00,0.0022
3490.00,0.0022
3489.00,0.0022
3488.00,0.0022
3487.00,0.0022
3486.00,0.0022
3485.00,0.0022
3484.00,0.0022
3483.00,0.0023
3482.00,0.0023
3481.00,0.0023
3480.00,0.0023
3479.00,0.0023
3478.00,0.0023
3477.00,0.0023
3476.00,0.0023
3475.00,0.0023
3474.00,0.0024
3473.00,0.0024
3472.00,0.0024
3471.00,0.0024
3470.00,0.0024
3469.00,0.0024
3468.00,0.0024
3467.00,0.0024
3466.00,0.0024
3465.00,0.0024
3464.00,0.0024
3463.00,0.0024
3462.00,0.0024
3461.00,0.0024
3460.00,0.0024
3459.00,0.0024
3458.00,0.0024
3457.00,0.0024
3456.00,0.0024
3455.00,0.0024
3454.00,0.0024
3453.00,0.0024
3452.00,0.0024
3451.00,0.0025
3450.00,0.0025
3449.00,0.0025
3448.00,0.0025
3447.00,0.0025
3446.00,0.0025
3445.00,0.0025
3444.00,0.0025
3443.00,0.0025
3442.00,0.0025
3441.00,0.0025
3440.00,0.0025
3439.00,0.0025
3438.00,0.0025
3437.00,0.0025
3436.00,0.0025
3435.00,0.0025
3434.00,0.0025
3433.00,0.0026
3432.00,0.0026
3431.00,0.0026
3430.00,0.0025
3429.00,0.0025
3428.00,0.0025
3427.00,0.0025
3426.00,0.0025
3425.00,0.0025
3424.00,0.0025
3423.00,0.0025
3422.00,0.0025
3421.00,0.0025
3420.00,0.0025
3419.00,0.0025
3418.00,0.0025
3417.00,0.0025
3416.00,0.0025
3415.00,0.0026
3414.00,0.0026
3413.00,0.0026
3412.00,0.0025
3411.00,0.0025
3410.00,0.0025
3409.00,0.0025
3408.00,0.0025
3407.00,0.0025
3406.00,0.0025
3405.00,0.0025
3404.00,0.0026
3403.00,0.0026
3402.00,0.0026
3401.00,0.0026
3400.00,0.0026
3399.00,0.0026
3398.00,0.0025
3397.00,0.0025
3396.00,0.0025
3395.00,0.0025
3394.00,0.0025
3393.00,0.0025
3392.00,0.0025
3391.00,0.0026
3390.00,0.0026
3389.00,0.0026
3388.00,0.0026
3387.00,0.0025
3386.00,0.0025
3385.00,0.0025
3384.00,0.0025
3383.00,0.0025
3382.00,0.0025
3381.00,0.0025
3380.00,0.0025
3379.00,0.0026
3378.00,0.0026
3377.00,0.0026
3376.00,0.0026
3375.00,0.0026
3374.00,0.0026
3373.00,0.0025
3372.00,0.0025
3371.00,0.0025
3370.00,0.0025
3369.00,0.0025
3368.00,0.0025
3367.00,0.0025
3366.00,0.0025
3365.00,0.0025
3364.00,0.0025
3363.00,0.0025
3362.00,0.0025
3361.00,0.0025
3360.00,0.0025
3359.00,0.0025
3358.00,0.0025
3357.00,0.0025
3356.00,0.0025
3355.00,0.0025
3354.00,0.0025
3353.00,0.0025
3352.00,0.0025
3351.00,0.0025
3350.00,0.0025
3349.00,0.0025
3348.00,0.0025
3347.00,0.0025
3346.00,0.0025
3345.00,0.0025
3344.00,0.0025
3343.00,0.0025
3342.00,0.0025
3341.00,0.0025
3340.00,0.0025
3339.00,0.0025
3338.00,0.0025
3337.00,0.0025
3336.00,0.0025
3335.00,0.0025
3334.00,0.0025
3333.00,0.0025
3332.00,0.0025
3331.00,0.0025
3330.00,0.0025
3329.00,0.0025
3328.00,0.0025
3327.00,0.0025
3326.00,0.0025
3325.00,0.0025
3324.00,0.0024
3323.00,0.0024
3322.00,0.0024
3321.00,0.0024
3320.00,0.0024
3319.00,0.0024
3318.00,0.0024
3317.00,0.0024
3316.00,0.0024
3315.00,0.0025
3314.00,0.0025
3313.00,0.0024
3312.00,0.0024
3311.00,0.0024
3310.00,0.0024
3309.00,0.0024
3308.00,0.0024
3307.00,0.0024
3306.00,0.0024
3305.00,0.0024
3304.00,0.0024
3303.00,0.0024
3302.00,0.0024
3301.00,0.0024
3300.00,0.0024
3299.00,0.0024
3298.00,0.0024
3297.00,0.0024
3296.00,0.0024
3295.00,0.0024
3294.00,0.0024
3293.00,0.0024
3292.00,0.0024
3291.00,0.0024
3290.00,0.0024
3289.00,0.0024
3288.00,0.0023
3287.00,0.0023
3286.00,0.0023
3285.00,0.0023
3284.00,0.0023
3283.00,0.0024
3282.00,0.0024
3281.00,0.0024
3280.00,0.0024
3279.00,0.0024
3278.00,0.0024
3277.00,0.0023
3276.00,0.0024
3275.00,0.0024
3274.00,0.0024
3273.00,0.0024
3272.00,0.0024
3271.00,0.0024
3270.00,0.0023
3269.00,0.0023
3268.00,0.0023
3267.00,0.0023
3266.00,0.0023
3265.00,0.0023
3264.00,0.0023
3263.00,0.0022
3262.00,0.0022
3261.00,0.0022
3260.00,0.0022
3259.00,0.0022
3258.00,0.0022
3257.00,0.0023
3256.00,0.0022
3255.00,0.0022
3254.00,0.0022
3253.00,0.0022
3252.00,0.0022
3251.00,0.0022
3250.00,0.0022
3249.00,0.0022
3248.00,0.0022
3247.00,0.0022
3246.00,0.0022
3245.00,0.0022
3244.00,0.0022
3243.00,0.0022
3242.00,0.0022
3241.00,0.0022
3240.00,0.0022
3239.00,0.0022
3238.00,0.0022
3237.00,0.0022
3236.00,0.0022
3235.00,0.0022
3234.00,0.0021
3233.00,0.0021
3232.00,0.0021
3231.00,0.0021
3230.00,0.0021
3229.00,0.0021
3228.00,0.0021
3227.00,0.0021
3226.00,0.0020
3225.00,0.0020
3224.00,0.0020
3223.00,0.0021
3222.00,0.0021
3221.00,0.0021
3220.00,0.0021
3219.00,0.0021
3218.00,0.0021
3217.00,0.0021
3216.00,0.0021
3215.00,0.0021
3214.00,0.0021
3213.00,0.0021
3212.00,0.0021
3211.00,0.0021
3210.00,0.0021
3209.00,0.0021
3208.00,0.0021
3207.00,0.0021
3206.00,0.0021
3205.00,0.0021
3204.00,0.0021
3203.00,0.0021
3202.00,0.0021
3201.00,0.0022
3200.00,0.0022
3199.00,0.0022
3198.00,0.0021
3197.00,0.0021
3196.00,0.0021
3195.00,0.0020
3194.00,0.0020
3193.00,0.0020
3192.00,0.0020
3191.00,0.0020
3190.00,0.0020
3189.00,0.0019
3188.00,0.0019
3187.00,0.0019
3186.00,0.0019
3185.00,0.0019
3184.00,0.0019
3183.00,0.0019
3182.00,0.0019
3181.00,0.0020
3180.00,0.0020
3179.00,0.0020
3178.00,0.0020
3177.00,0.0020
3176.00,0.0020
3175.00,0.0020
3174.00,0.0019
3173.00,0.0019
3172.00,0.0019
3171.00,0.0019
3170.00,0.0019
3169.00,0.0019
3168.00,0.0019
3167.00,0.0019
3166.00,0.0020
3165.00,0.0020
3164.00,0.0020
3163.00,0.0020
3162.00,0.0020
3161.00,0.0020
3160.00,0.0020
3159.00,0.0020
3158.00,0.0020
3157.00,0.0020
3156.00,0.0019
3155.00,0.0019
3154.00,0.0019
3153.00,0.0019
3152.00,0.0018
3151.00,0.0018
3150.00,0.0018
3149.00,0.0018
3148.00,0.0018
3147.00,0.0018
3146.00,0.0018
3145.00,0.0018
3144.00,0.0018
3143.00,0.0018
3142.00,0.0018
3141.00,0.0018
3140.00,0.0018
3139.00,0.0018
3138.00,0.0018
3137.00,0.0018
3136.00,0.0018
3135.00,0.0018
3134.00,0.0018
3133.00,0.0018
3132.00,0.0018
3131.00,0.0018
3130.00,0.0018
3129.00,0.0018
3128.00,0.0018
3127.00,0.0018
3126.00,0.0019
3125.00,0.0019
3124.00,0.0019
3123.00,0.0019
3122.00,0.0019
3121.00,0.0019
3120.00,0.0019
3119.00,0.0020
3118.00,0.0020
3117.00,0.0021
3116.00,0.0022
3115.00,0.0022
3114.00,0.0023
3113.00,0.0024
3112.00,0.0025
3111.00,0.0027
3110.00,0.0028
3109.00,0.0030
3108.00,0.0032
3107.00,0.0033
3106.00,0.0035
3105.00,0.0036
3104.00,0.0037
3103.00,0.0037
3102.00,0.0037
3101.00,0.0037
3100.00,0.0036
3099.00,0.0036
3098.00,0.0035
3097.00,0.0035
3096.00,0.0036
3095.00,0.0037
3094.00,0.0038
3093.00,0.0040
3092.00,0.0042
3091.00,0.0045
3090.00,0.0049
3089.00,0.0054
3088.00,0.0059
3087.00,0.0065
3086.00,0.0071
3085.00,0.0076
3084.00,0.0081
3083.00,0.0083
3082.00,0.0085
3081.00,0.0084
3080.00,0.0081
3079.00,0.0078
3078.00,0.0074
3077.00,0.0070
3076.00,0.0067
3075.00,0.0065
3074.00,0.0063
3073.00,0.0063
3072.00,0.0063
3071.00,0.0065
3070.00,0.0067
3069.00,0.0070
3068.00,0.0075
3067.00,0.0080
3066.00,0.0085
3065.00,0.0091
3064.00,0.0098
3063.00,0.0103
3062.00,0.0109
3061.00,0.0112
3060.00,0.0114
3059.00,0.0114
3058.00,0.0112
3057.00,0.0108
3056.00,0.0102
3055.00,0.0096
3054.00,0.0090
3053.00,0.0084
3052.00,0.0079
3051.00,0.0074
3050.00,0.0070
3049.00,0.0067
3048.00,0.0064
3047.00,0.0063
3046.00,0.0062
3045.00,0.0061
3044.00,0.0061
3043.00,0.0063
3042.00,0.0064
3041.00,0.0067
3040.00,0.0071
3039.00,0.0075
3038.00,0.0080
3037.00,0.0087
3036.00,0.0094
3035.00,0.0104
3034.00,0.0114
3033.00,0.0127
3032.00,0.0140
3031.00,0.0155
3030.00,0.0171
3029.00,0.0186
3028.00,0.0199
3027.00,0.0210
3026.00,0.0217
3025.00,0.0219
3024.00,0.0215
3023.00,0.0206
3022.00,0.0192
3021.00,0.0176
3020.00,0.0158
3019.00,0.0141
3018.00,0.0127
3017.00,0.0115
3016.00,0.0104
3015.00,0.0093
3014.00,0.0083
3013.00,0.0075
3012.00,0.0068
3011.00,0.0064
3010.00,0.0061
3009.00,0.0060
3008.00,0.0060
3007.00,0.0060
3006.00,0.0062
3005.00,0.0064
3004.00,0.0066
3003.00,0.0067
3002.00,0.0069
3001.00,0.0069
3000.00,0.0067
2999.00,0.0065
2998.00,0.0062
2997.00,0.0058
2996.00,0.0054
2995.00,0.0051
2994.00,0.0047
2993.00,0.0045
2992.00,0.0043
2991.00,0.0041
2990.00,0.0040
2989.00,0.0039
2988.00,0.0038
2987.00,0.0037
2986.00,0.0037
2985.00,0.0036
2984.00,0.0035
2983.00,0.0035
2982.00,0.0035
2981.00,0.0035
2980.00,0.0036
2979.00,0.0039
2978.00,0.0042
2977.00,0.0045
2976.00,0.0048
2975.00,0.0049
2974.00,0.0048
2973.00,0.0046
2972.00,0.0043
2971.00,0.0042
2970.00,0.0042
2969.00,0.0042
2968.00,0.0043
2967.00,0.0044
2966.00,0.0045
2965.00,0.0047
2964.00,0.0048
2963.00,0.0050
2962.00,0.0052
2961.00,0.0053
2960.00,0.0055
2959.00,0.0057
2958.00,0.0059
2957.00,0.0062
2956.00,0.0064
2955.00,0.0067
2954.00,0.0069
2953.00,0.0072
2952.00,0.0075
2951.00,0.0078
2950.00,0.0082
2949.00,0.0085
2948.00,0.0090
2947.00,0.0094
2946.00,0.0099
2945.00,0.0104
2944.00,0.0109
2943.00,0.0115
2942.00,0.0121
2941.00,0.0128
2940.00,0.0135
2939.00,0.0142
2938.00,0.0150
2937.00,0.0159
2936.00,0.0167
2935.00,0.0176
2934.00,0.0185
2933.00,0.0195
2932.00,0.0204
2931.00,0.0213
2930.00,0.0221
2929.00,0.0229
2928.00,0.0236
2927.00,0.0242
2926.00,0.0248
2925.00,0.0253
2924.00,0.0256
2923.00,0.0258
2922.00,0.0259
2921.00,0.0259
2920.00,0.0259
2919.00,0.0257
2918.00,0.0254
2917.00,0.0251
2916.00,0.0247
2915.00,0.0242
2914.00,0.0237
2913.00,0.0231
2912.00,0.0225
2911.00,0.0219
2910.00,0.0213
2909.00,0.0207
2908.00,0.0200
2907.00,0.0194
2906.00,0.0187
2905.00,0.0181
2904.00,0.0174
2903.00,0.0168
2902.00,0.0161
2901.00,0.0155
2900.00,0.0148
2899.00,0.0142
2898.00,0.0136
2897.00,0.0130
2896.00,0.0125
2895.00,0.0120
2894.00,0.0116
2893.00,0.0112
2892.00,0.0109
2891.00,0.0106
2890.00,0.0103
2889.00,0.0100
2888.00,0.0097
2887.00,0.0095
2886.00,0.0093
2885.00,0.0091
2884.00,0.0088
2883.00,0.0086
2882.00,0.0084
2881.00,0.0082
2880.00,0.0081
2879.00,0.0079
2878.00,0.0077
2877.00,0.0076
2876.00,0.0074
2875.00,0.0073
2874.00,0.0071
2873.00,0.0070
2872.00,0.0069
2871.00,0.0069
2870.00,0.0068
2869.00,0.0068
2868.00,0.0068
2867.00,0.0069
2866.00,0.0070
2865.00,0.0071
2864.00,0.0073
2863.00,0.0075
2862.00,0.0078
2861.00,0.0081
2860.00,0.0085
2859.00,0.0088
2858.00,0.0092
2857.00,0.0096
2856.00,0.0100
2855.00,0.0104
2854.00,0.0107
2853.00,0.0111
2852.00,0.0113
2851.00,0.0115
2850.00,0.0117
2849.00,0.0117
2848.00,0.0116
2847.00,0.0114
2846.00,0.0112
2845.00,0.0108
2844.00,0.0103
2843.00,0.0097
2842.00,0.0091
2841.00,0.0084
2840.00,0.0077
2839.00,0.0071
2838.00,0.0064
2837.00,0.0059
2836.00,0.0054
2835.00,0.0049
2834.00,0.0045
2833.00,0.0042
2832.00,0.0040
2831.00,0.0038
2830.00,0.0036
2829.00,0.0035
2828.00,0.0034
2827.00,0.0033
2826.00,0.0032
2825.00,0.0031
2824.00,0.0031
2823.00,0.0030
2822.00,0.0030
2821.00,0.0029
2820.00,0.0029
2819.00,0.0029
2818.00,0.0028
2817.00,0.0028
2816.00,0.0028
2815.00,0.0028
2814.00,0.0028
2813.00,0.0027
2812.00,0.0027
2811.00,0.0027
2810.00,0.0027
2809.00,0.0027
2808.00,0.0027
2807.00,0.0027
2806.00,0.0027
2805.00,0.0026
2804.00,0.0026
2803.00,0.0026
2802.00,0.0025
2801.00,0.0025
2800.00,0.0025
2799.00,0.0024
2798.00,0.0024
2797.00,0.0024
2796.00,0.0024
2795.00,0.0024
2794.00,0.0024
2793.00,0.0024
2792.00,0.0024
2791.00,0.0023
2790.00,0.0023
2789.00,0.0023
2788.00,0.0023
2787.00,0.0023
2786.00,0.0023
2785.00,0.0023
2784.00,0.0023
2783.00,0.0022
2782.00,0.0022
2781.00,0.0022
2780.00,0.0022
2779.00,0.0022
2778.00,0.0022
2777.00,0.0022
2776.00,0.0022
2775.00,0.0021
2774.00,0.0021
2773.00,0.0021
2772.00,0.0021
2771.00,0.0021
2770.00,0.0020
2769.00,0.0020
2768.00,0.0020
2767.00,0.0020
2766.00,0.0020
2765.00,0.0020
2764.00,0.0020
2763.00,0.0020
2762.00,0.0020
2761.00,0.0021
2760.00,0.0021
2759.00,0.0021
2758.00,0.0020
2757.00,0.0020
2756.00,0.0019
2755.00,0.0019
2754.00,0.0019
2753.00,0.0019
2752.00,0.0020
2751.00,0.0020
2750.00,0.0020
2749.00,0.0020
2748.00,0.0020
2747.00,0.0019
2746.00,0.0019
2745.00,0.0019
2744.00,0.0019
2743.00,0.0019
2742.00,0.0019
2741.00,0.0019
2740.00,0.0019
2739.00,0.0020
2738.00,0.0020
2737.00,0.0020
2736.00,0.0020
2735.00,0.0020
2734.00,0.0020
2733.00,0.0020
2732.00,0.0020
2731.00,0.0020
2730.00,0.0020
2729.00,0.0020
2728.00,0.0020
2727.00,0.0020
2726.00,0.0020
2725.00,0.0020
2724.00,0.0020
2723.00,0.0020
2722.00,0.0020
2721.00,0.0020
2720.00,0.0020
2719.00,0.0020
2718.00,0.0020
2717.00,0.0020
2716.00,0.0020
2715.00,0.0020
2714.00,0.0020
2713.00,0.0020
2712.00,0.0020
2711.00,0.0020
2710.00,0.0020
2709.00,0.0020
2708.00,0.0020
2707.00,0.0020
2706.00,0.0020
2705.00,0.0020
2704.00,0.0020
2703.00,0.0019
2702.00,0.0019
2701.00,0.0019
2700.00,0.0019
2699.00,0.0019
2698.00,0.0019
2697.00,0.0020
2696.00,0.0020
2695.00,0.0020
2694.00,0.0020
2693.00,0.0020
2692.00,0.0020
2691.00,0.0020
2690.00,0.0020
2689.00,0.0020
2688.00,0.0020
2687.00,0.0020
2686.00,0.0020
2685.00,0.0020
2684.00,0.0020
2683.00,0.0019
2682.00,0.0019
2681.00,0.0019
2680.00,0.0019
2679.00,0.0019
2678.00,0.0019
2677.00,0.0019
2676.00,0.0019
2675.00,0.0020
2674.00,0.0020
2673.00,0.0020
2672.00,0.0020
2671.00,0.0020
2670.00,0.0020
2669.00,0.0020
2668.00,0.0020
2667.00,0.0020
2666.00,0.0020
2665.00,0.0021
2664.00,0.0021
2663.00,0.0022
2662.00,0.0022
2661.00,0.0023
2660.00,0.0023
2659.00,0.0023
2658.00,0.0023
2657.00,0.0024
2656.00,0.0024
2655.00,0.0024
2654.00,0.0024
2653.00,0.0024
2652.00,0.0024
2651.00,0.0024
2650.00,0.0024
2649.00,0.0024
2648.00,0.0024
2647.00,0.0024
2646.00,0.0024
2645.00,0.0024
2644.00,0.0024
2643.00,0.0024
2642.00,0.0024
2641.00,0.0024
2640.00,0.0024
2639.00,0.0024
2638.00,0.0024
2637.00,0.0024
2636.00,0.0024
2635.00,0.0024
2634.00,0.0024
2633.00,0.0025
2632.00,0.0025
2631.00,0.0025
2630.00,0.0025
2629.00,0.0024
2628.00,0.0024
2627.00,0.0024
2626.00,0.0024
2625.00,0.0024
2624.00,0.0023
2623.00,0.0023
2622.00,0.0023
2621.00,0.0022
2620.00,0.0022
2619.00,0.0022
2618.00,0.0022
2617.00,0.0022
2616.00,0.0021
2615.00,0.0021
2614.00,0.0021
2613.00,0.0021
2612.00,0.0021
2611.00,0.0022
2610.00,0.0022
2609.00,0.0022
2608.00,0.0022
2607.00,0.0022
2606.00,0.0022
2605.00,0.0022
2604.00,0.0021
2603.00,0.0021
2602.00,0.0021
2601.00,0.0021
2600.00,0.0021
2599.00,0.0021
2598.00,0.0021
2597.00,0.0020
2596.00,0.0020
2595.00,0.0020
2594.00,0.0020
2593.00,0.0020
2592.00,0.0019
2591.00,0.0019
2590.00,0.0019
2589.00,0.0019
2588.00,0.0019
2587.00,0.0019
2586.00,0.0020
2585.00,0.0020
2584.00,0.0020
2583.00,0.0020
2582.00,0.0020
2581.00,0.0020
2580.00,0.0019
2579.00,0.0019
2578.00,0.0019
2577.00,0.0018
2576.00,0.0018
2575.00,0.0018
2574.00,0.0018
2573.00,0.0018
2572.00,0.0018
2571.00,0.0017
2570.00,0.0017
2569.00,0.0017
2568.00,0.0017
2567.00,0.0017
2566.00,0.0017
2565.00,0.0017
2564.00,0.0017
2563.00,0.0017
2562.00,0.0017
2561.00,0.0017
2560.00,0.0017
2559.00,0.0017
2558.00,0.0017
2557.00,0.0017
2556.00,0.0017
2555.00,0.0017
2554.00,0.0017
2553.00,0.0016
2552.00,0.0016
2551.00,0.0016
2550.00,0.0016
2549.00,0.0016
2548.00,0.0016
2547.00,0.0017
2546.00,0.0017
2545.00,0.0017
2544.00,0.0017
2543.00,0.0017
2542.00,0.0017
2541.00,0.0017
2540.00,0.0017
2539.00,0.0016
2538.00,0.0016
2537.00,0.0016
2536.00,0.0016
2535.00,0.0016
2534.00,0.0016
2533.00,0.0016
2532.00,0.0016
2531.00,0.0016
2530.00,0.0016
2529.00,0.0016
2528.00,0.0016
2527.00,0.0016
2526.00,0.0016
2525.00,0.0016
2524.00,0.0016
2523.00,0.0016
2522.00,0.0015
2521.00,0.0015
2520.00,0.0015
2519.00,0.0015
2518.00,0.0015
2517.00,0.0016
2516.00,0.0016
2515.00,0.0016
2514.00,0.0016
2513.00,0.0016
2512.00,0.0016
2511.00,0.0016
2510.00,0.0016
2509.00,0.0015
2508.00,0.0015
2507.00,0.0015
2506.00,0.0015
2505.00,0.0015
2504.00,0.0015
2503.00,0.0015
2502.00,0.0015
2501.00,0.0015
2500.00,0.0015
2499.00,0.0015
2498.00,0.0015
2497.00,0.0015
2496.00,0.0015
2495.00,0.0015
2494.00,0.0015
2493.00,0.0015
2492.00,0.0015
2491.00,0.0015
2490.00,0.0015
2489.00,0.0015
2488.00,0.0014
2487.00,0.0014
2486.00,0.0014
2485.00,0.0014
2484.00,0.0014
2483.00,0.0014
2482.00,0.0014
2481.00,0.0014
2480.00,0.0014
2479.00,0.0014
2478.00,0.0014
2477.00,0.0014
2476.00,0.0014
2475.00,0.0014
2474.00,0.0014
2473.00,0.0014
2472.00,0.0014
2471.00,0.0014
2470.00,0.0013
2469.00,0.0013
2468.00,0.0014
2467.00,0.0014
2466.00,0.0014
2465.00,0.0014
2464.00,0.0014
2463.00,0.0013
2462.00,0.0013
2461.00,0.0013
2460.00,0.0014
2459.00,0.0015
2458.00,0.0015
2457.00,0.0015
2456.00,0.0015
2455.00,0.0015
2454.00,0.0015
2453.00,0.0015
2452.00,0.0015
2451.00,0.0015
2450.00,0.0015
2449.00,0.0015
2448.00,0.0015
2447.00,0.0014
2446.00,0.0014
2445.00,0.0014
2444.00,0.0014
2443.00,0.0014
2442.00,0.0014
2441.00,0.0014
2440.00,0.0013
2439.00,0.0013
2438.00,0.0013
2437.00,0.0013
2436.00,0.0013
2435.00,0.0013
2434.00,0.0013
2433.00,0.0013
2432.00,0.0013
2431.00,0.0013
2430.00,0.0013
2429.00,0.0013
2428.00,0.0012
2427.00,0.0012
2426.00,0.0012
2425.00,0.0011
2424.00,0.0011
2423.00,0.0011
2422.00,0.0011
2421.00,0.0011
2420.00,0.0011
2419.00,0.0011
2418.00,0.0011
2417.00,0.0011
2416.00,0.0011
2415.00,0.0011
2414.00,0.0011
2413.00,0.0011
2412.00,0.0012
2411.00,0.0011
2410.00,0.0011
2409.00,0.0011
2408.00,0.0010
2407.00,0.0010
2406.00,0.0010
2405.00,0.0010
2404.00,0.0010
2403.00,0.0010
2402.00,0.0010
2401.00,0.0010
2400.00,0.0010
2399.00,0.0010
2398.00,0.0010
2397.00,0.0009
2396.00,0.0009
2395.00,0.0009
2394.00,0.0009
2393.00,0.0009
2392.00,0.0009
2391.00,0.0009
2390.00,0.0009
2389.00,0.0009
2388.00,0.0009
2387.00,0.0009
2386.00,0.0009
2385.00,0.0009
2384.00,0.0009
2383.00,0.0009
2382.00,0.0009
2381.00,0.0009
2380.00,0.0009
2379.00,0.0009
2378.00,0.0009
2377.00,0.0010
2376.00,0.0010
2375.00,0.0010
2374.00,0.0010
2373.00,0.0009
2372.00,0.0009
2371.00,0.0009
2370.00,0.0008
2369.00,0.0007
2368.00,0.0007
2367.00,0.0007
2366.00,0.0008
2365.00,0.0009
2364.00,0.0010
2363.00,0.0011
2362.00,0.0011
2361.00,0.0011
2360.00,0.0011
2359.00,0.0011
2358.00,0.0012
2357.00,0.0012
2356.00,0.0011
2355.00,0.0011
2354.00,0.0011
2353.00,0.0011
2352.00,0.0011
2351.00,0.0010
2350.00,0.0010
2349.00,0.0011
2348.00,0.0013
2347.00,0.0015
2346.00,0.0017
2345.00,0.0017
2344.00,0.0017
2343.00,0.0016
2342.00,0.0015
2341.00,0.0015
2340.00,0.0015
2339.00,0.0016
2338.00,0.0016
2337.00,0.0017
2336.00,0.0017
2335.00,0.0017
2334.00,0.0017
2333.00,0.0016
2332.00,0.0015
2331.00,0.0015
2330.00,0.0015
2329.00,0.0016
2328.00,0.0019
2327.00,0.0023
2326.00,0.0026
2325.00,0.0027
2324.00,0.0026
2323.00,0.0024
2322.00,0.0022
2321.00,0.0021
2320.00,0.0021
2319.00,0.0020
2318.00,0.0020
2317.00,0.0019
2316.00,0.0019
2315.00,0.0019
2314.00,0.0019
2313.00,0.0019
2312.00,0.0019
2311.00,0.0019
2310.00,0.0018
2309.00,0.0018
2308.00,0.0018
2307.00,0.0018
2306.00,0.0018
2305.00,0.0018
2304.00,0.0018
2303.00,0.0018
2302.00,0.0018
2301.00,0.0018
2300.00,0.0018
2299.00,0.0018
2298.00,0.0019
2297.00,0.0020
2296.00,0.0021
2295.00,0.0022
2294.00,0.0022
2293.00,0.0023
2292.00,0.0023
2291.00,0.0023
2290.00,0.0024
2289.00,0.0024
2288.00,0.0025
2287.00,0.0025
2286.00,0.0025
2285.00,0.0024
2284.00,0.0023
2283.00,0.0022
2282.00,0.0021
2281.00,0.0021
2280.00,0.0021
2279.00,0.0021
2278.00,0.0020
2277.00,0.0020
2276.00,0.0019
2275.00,0.0019
2274.00,0.0019
2273.00,0.0019
2272.00,0.0019
2271.00,0.0019
2270.00,0.0019
2269.00,0.0019
2268.00,0.0018
2267.00,0.0017
2266.00,0.0017
2265.00,0.0017
2264.00,0.0017
2263.00,0.0017
2262.00,0.0018
2261.00,0.0019
2260.00,0.0019
2259.00,0.0019
2258.00,0.0018
2257.00,0.0016
2256.00,0.0015
2255.00,0.0014
2254.00,0.0014
2253.00,0.0014
2252.00,0.0014
2251.00,0.0015
2250.00,0.0014
2249.00,0.0014
2248.00,0.0014
2247.00,0.0015
2246.00,0.0015
2245.00,0.0015
2244.00,0.0015
2243.00,0.0014
2242.00,0.0013
2241.00,0.0013
2240.00,0.0014
2239.00,0.0015
2238.00,0.0015
2237.00,0.0016
2236.00,0.0015
2235.00,0.0015
2234.00,0.0015
2233.00,0.0015
2232.00,0.0015
2231.00,0.0015
2230.00,0.0014
2229.00,0.0014
2228.00,0.0014
2227.00,0.0013
2226.00,0.0013
2225.00,0.0014
2224.00,0.0014
2223.00,0.0014
2222.00,0.0014
2221.00,0.0014
2220.00,0.0014
2219.00,0.0014
2218.00,0.0013
2217.00,0.0012
2216.00,0.0012
2215.00,0.0011
2214.00,0.0011
2213.00,0.0012
2212.00,0.0013
2211.00,0.0013
2210.00,0.0014
2209.00,0.0015
2208.00,0.0015
2207.00,0.0015
2206.00,0.0014
2205.00,0.0013
2204.00,0.0012
2203.00,0.0012
2202.00,0.0013
2201.00,0.0014
2200.00,0.0016
2199.00,0.0016
2198.00,0.0016
2197.00,0.0016
2196.00,0.0016
2195.00,0.0016
2194.00,0.0016
2193.00,0.0016
2192.00,0.0016
2191.00,0.0016
2190.00,0.0015
2189.00,0.0015
2188.00,0.0015
2187.00,0.0016
2186.00,0.0016
2185.00,0.0015
2184.00,0.0013
2183.00,0.0010
2182.00,0.0008
2181.00,0.0008
2180.00,0.0009
2179.00,0.0010
2178.00,0.0010
2177.00,0.0008
2176.00,0.0006
2175.00,0.0005
2174.00,0.0005
2173.00,0.0008
2172.00,0.0011
2171.00,0.0015
2170.00,0.0018
2169.00,0.0020
2168.00,0.0022
2167.00,0.0023
2166.00,0.0024
2165.00,0.0026
2164.00,0.0028
2163.00,0.0028
2162.00,0.0023
2161.00,0.0013
2160.00,-0.0000
2159.00,-0.0012
2158.00,-0.0018
2157.00,-0.0020
2156.00,-0.0019
2155.00,-0.0017
2154.00,-0.0014
2153.00,-0.0010
2152.00,-0.0007
2151.00,-0.0005
2150.00,-0.0006
2149.00,-0.0007
2148.00,-0.0008
2147.00,-0.0008
2146.00,-0.0007
2145.00,-0.0006
2144.00,-0.0005
2143.00,-0.0005
2142.00,-0.0004
2141.00,-0.0004
2140.00,-0.0003
2139.00,-0.0003
2138.00,-0.0004
2137.00,-0.0006
2136.00,-0.0008
2135.00,-0.0011
2134.00,-0.0013
2133.00,-0.0013
2132.00,-0.0011
2131.00,-0.0009
2130.00,-0.0007
2129.00,-0.0004
2128.00,-0.0003
2127.00,-0.0002
2126.00,-0.0000
2125.00,0.0001
2124.00,0.0002
2123.00,0.0002
2122.00,0.0002
2121.00,0.0002
2120.00,0.0003
2119.00,0.0004
2118.00,0.0006
2117.00,0.0008
2116.00,0.0009
2115.00,0.0009
2114.00,0.0009
2113.00,0.0009
2112.00,0.0009
2111.00,0.0009
2110.00,0.0010
2109.00,0.0010
2108.00,0.0010
2107.00,0.0010
2106.00,0.0009
2105.00,0.0009
2104.00,0.0009
2103.00,0.0009
2102.00,0.0009
2101.00,0.0010
2100.00,0.0010
2099.00,0.0009
2098.00,0.0008
2097.00,0.0008
2096.00,0.0006
2095.00,0.0006
2094.00,0.0005
2093.00,0.0005
2092.00,0.0006
2091.00,0.0006
2090.00,0.0007
2089.00,0.0007
2088.00,0.0008
2087.00,0.0008
2086.00,0.0009
2085.00,0.0010
2084.00,0.0010
2083.00,0.0011
2082.00,0.0011
2081.00,0.0011
2080.00,0.0011
2079.00,0.0012
2078.00,0.0012
2077.00,0.0011
2076.00,0.0011
2075.00,0.0010
2074.00,0.0009
2073.00,0.0008
2072.00,0.0008
2071.00,0.0008
2070.00,0.0008
2069.00,0.0008
2068.00,0.0009
2067.00,0.0009
2066.00,0.0009
2065.00,0.0008
2064.00,0.0008
2063.00,0.0007
2062.00,0.0007
2061.00,0.0008
2060.00,0.0008
2059.00,0.0008
2058.00,0.0009
2057.00,0.0009
2056.00,0.0010
2055.00,0.0011
2054.00,0.0013
2053.00,0.0017
2052.00,0.0020
2051.00,0.0020
2050.00,0.0018
2049.00,0.0014
2048.00,0.0011
2047.00,0.0009
2046.00,0.0007
2045.00,0.0007
2044.00,0.0008
2043.00,0.0009
2042.00,0.0009
2041.00,0.0009
2040.00,0.0009
2039.00,0.0009
2038.00,0.0010
2037.00,0.0012
2036.00,0.0012
2035.00,0.0011
2034.00,0.0009
2033.00,0.0006
2032.00,0.0004
2031.00,0.0002
2030.00,0.0001
2029.00,0.0002
2028.00,0.0003
2027.00,0.0003
2026.00,0.0003
2025.00,0.0002
2024.00,0.0002
2023.00,0.0002
2022.00,0.0002
2021.00,0.0001
2020.00,-0.0000
2019.00,-0.0001
2018.00,-0.0002
2017.00,-0.0001
2016.00,0.0001
2015.00,0.0003
2014.00,0.0004
2013.00,0.0004
2012.00,0.0004
2011.00,0.0003
2010.00,0.0001
2009.00,-0.0002
2008.00,-0.0004
2007.00,-0.0006
2006.00,-0.0006
2005.00,-0.0005
2004.00,-0.0003
2003.00,-0.0001
2002.00,0.0001
2001.00,0.0003
2000.00,0.0006
1999.00,0.0008
1998.00,0.0009
1997.00,0.0009
1996.00,0.0009
1995.00,0.0009
1994.00,0.0010
1993.00,0.0011
1992.00,0.0011
1991.00,0.0011
1990.00,0.0010
1989.00,0.0010
1988.00,0.0010
1987.00,0.0012
1986.00,0.0014
1985.00,0.0016
1984.00,0.0018
1983.00,0.0020
1982.00,0.0023
1981.00,0.0025
1980.00,0.0023
1979.00,0.0018
1978.00,0.0011
1977.00,0.0005
1976.00,0.0002
1975.00,0.0001
1974.00,0.0002
1973.00,0.0003
1972.00,0.0004
1971.00,0.0006
1970.00,0.0007
1969.00,0.0008
1968.00,0.0009
1967.00,0.0010
1966.00,0.0011
1965.00,0.0012
1964.00,0.0013
1963.00,0.0013
1962.00,0.0013
1961.00,0.0012
1960.00,0.0012
1959.00,0.0013
1958.00,0.0014
1957.00,0.0016
1956.00,0.0017
1955.00,0.0019
1954.00,0.0020
1953.00,0.0022
1952.00,0.0024
1951.00,0.0025
1950.00,0.0026
1949.00,0.0027
1948.00,0.0028
1947.00,0.0029
1946.00,0.0030
1945.00,0.0031
1944.00,0.0032
1943.00,0.0032
1942.00,0.0031
1941.00,0.0030
1940.00,0.0029
1939.00,0.0028
1938.00,0.0027
1937.00,0.0025
1936.00,0.0024
1935.00,0.0021
1934.00,0.0019
1933.00,0.0016
1932.00,0.0014
1931.00,0.0013
1930.00,0.0013
1929.00,0.0012
1928.00,0.0012
1927.00,0.0012
1926.00,0.0011
1925.00,0.0010
1924.00,0.0010
1923.00,0.0010
1922.00,0.0010
1921.00,0.0009
1920.00,0.0009
1919.00,0.0009
1918.00,0.0008
1917.00,0.0008
1916.00,0.0008
1915.00,0.0007
1914.00,0.0007
1913.00,0.0007
1912.00,0.0007
1911.00,0.0007
1910.00,0.0007
1909.00,0.0007
1908.00,0.0007
1907.00,0.0008
1906.00,0.0008
1905.00,0.0009
1904.00,0.0009
1903.00,0.0010
1902.00,0.0010
1901.00,0.0010
1900.00,0.0010
1899.00,0.0011
1898.00,0.0012
1897.00,0.0012
1896.00,0.0013
1895.00,0.0014
1894.00,0.0016
1893.00,0.0017
1892.00,0.0018
1891.00,0.0019
1890.00,0.0019
1889.00,0.0020
1888.00,0.0021
1887.00,0.0022
1886.00,0.0023
1885.00,0.0024
1884.00,0.0024
1883.00,0.0024
1882.00,0.0025
1881.00,0.0025
1880.00,0.0026
1879.00,0.0027
1878.00,0.0028
1877.00,0.0029
1876.00,0.0029
1875.00,0.0029
1874.00,0.0030
1873.00,0.0030
1872.00,0.0031
1871.00,0.0031
1870.00,0.0031
1869.00,0.0031
1868.00,0.0031
1867.00,0.0031
1866.00,0.0030
1865.00,0.0029
1864.00,0.0028
1863.00,0.0026
1862.00,0.0024
1861.00,0.0023
1860.00,0.0021
1859.00,0.0020
1858.00,0.0019
1857.00,0.0018
1856.00,0.0017
1855.00,0.0016
1854.00,0.0015
1853.00,0.0014
1852.00,0.0013
1851.00,0.0012
1850.00,0.0012
1849.00,0.0011
1848.00,0.0011
1847.00,0.0011
1846.00,0.0011
1845.00,0.0011
1844.00,0.0011
1843.00,0.0011
1842.00,0.0011
1841.00,0.0010
1840.00,0.0011
1839.00,0.0011
1838.00,0.0012
1837.00,0.0012
1836.00,0.0012
1835.00,0.0012
1834.00,0.0012
1833.00,0.0012
1832.00,0.0013
1831.00,0.0013
1830.00,0.0014
1829.00,0.0015
1828.00,0.0015
1827.00,0.0016
1826.00,0.0016
1825.00,0.0017
1824.00,0.0018
1823.00,0.0019
1822.00,0.0020
1821.00,0.0020
1820.00,0.0020
1819.00,0.0020
1818.00,0.0020
1817.00,0.0021
1816.00,0.0022
1815.00,0.0024
1814.00,0.0026
1813.00,0.0027
1812.00,0.0028
1811.00,0.0029
1810.00,0.0030
1809.00,0.0032
1808.00,0.0033
1807.00,0.0034
1806.00,0.0035
1805.00,0.0036
1804.00,0.0037
1803.00,0.0037
1802.00,0.0037
1801.00,0.0036
1800.00,0.0036
1799.00,0.0035
1798.00,0.0034
1797.00,0.0033
1796.00,0.0032
1795.00,0.0031
1794.00,0.0030
1793.00,0.0028
1792.00,0.0026
1791.00,0.0024
1790.00,0.0023
1789.00,0.0022
1788.00,0.0021
1787.00,0.0020
1786.00,0.0020
1785.00,0.0020
1784.00,0.0019
1783.00,0.0019
1782.00,0.0019
1781.00,0.0019
1780.00,0.0019
1779.00,0.0019
1778.00,0.0019
1777.00,0.0019
1776.00,0.0019
1775.00,0.0019
1774.00,0.0019
1773.00,0.0019
1772.00,0.0019
1771.00,0.0020
1770.00,0.0020
1769.00,0.0020
1768.00,0.0020
1767.00,0.0020
1766.00,0.0021
1765.00,0.0021
1764.00,0.0022
1763.00,0.0022
1762.00,0.0023
1761.00,0.0024
1760.00,0.0025
1759.00,0.0026
1758.00,0.0027
1757.00,0.0028
1756.00,0.0029
1755.00,0.0030
1754.00,0.0031
1753.00,0.0032
1752.00,0.0033
1751.00,0.0034
1750.00,0.0035
1749.00,0.0036
1748.00,0.0038
1747.00,0.0038
1746.00,0.0039
1745.00,0.0040
1744.00,0.0041
1743.00,0.0041
1742.00,0.0041
1741.00,0.0041
1740.00,0.0041
1739.00,0.0041
1738.00,0.0041
1737.00,0.0041
1736.00,0.0041
1735.00,0.0041
1734.00,0.0040
1733.00,0.0039
1732.00,0.0038
1731.00,0.0037
1730.00,0.0036
1729.00,0.0036
1728.00,0.0035
1727.00,0.0035
1726.00,0.0034
1725.00,0.0034
1724.00,0.0033
1723.00,0.0033
1722.00,0.0033
1721.00,0.0032
1720.00,0.0032
1719.00,0.0032
1718.00,0.0031
1717.00,0.0030
1716.00,0.0030
1715.00,0.0030
1714.00,0.0029
1713.00,0.0029
1712.00,0.0029
1711.00,0.0029
1710.00,0.0029
1709.00,0.0029
1708.00,0.0029
1707.00,0.0029
1706.00,0.0029
1705.00,0.0029
1704.00,0.0028
1703.00,0.0028
1702.00,0.0028
1701.00,0.0027
1700.00,0.0027
1699.00,0.0027
1698.00,0.0027
1697.00,0.0027
1696.00,0.0027
1695.00,0.0027
1694.00,0.0027
1693.00,0.0027
1692.00,0.0027
1691.00,0.0027
1690.00,0.0027
1689.00,0.0027
1688.00,0.0027
1687.00,0.0028
1686.00,0.0028
1685.00,0.0029
1684.00,0.0030
1683.00,0.0031
1682.00,0.0031
1681.00,0.0031
1680.00,0.0031
1679.00,0.0031
1678.00,0.0032
1677.00,0.0032
1676.00,0.0033
1675.00,0.0033
1674.00,0.0033
1673.00,0.0033
1672.00,0.0033
1671.00,0.0033
1670.00,0.0033
1669.00,0.0034
1668.00,0.0034
1667.00,0.0034
1666.00,0.0034
1665.00,0.0034
1664.00,0.0033
1663.00,0.0033
1662.00,0.0032
1661.00,0.0032
1660.00,0.0032
1659.00,0.0032
1658.00,0.0031
1657.00,0.0031
1656.00,0.0031
1655.00,0.0031
1654.00,0.0031
1653.00,0.0030
1652.00,0.0030
1651.00,0.0030
1650.00,0.0029
1649.00,0.0029
1648.00,0.0029
1647.00,0.0028
1646.00,0.0028
1645.00,0.0028
1644.00,0.0028
1643.00,0.0028
1642.00,0.0028
1641.00,0.0029
1640.00,0.0029
1639.00,0.0029
1638.00,0.0029
1637.00,0.0028
1636.00,0.0028
1635.00,0.0028
1634.00,0.0029
1633.00,0.0029
1632.00,0.0029
1631.00,0.0029
1630.00,0.0030
1629.00,0.0030
1628.00,0.0030
1627.00,0.0031
1626.00,0.0031
1625.00,0.0031
1624.00,0.0032
1623.00,0.0032
1622.00,0.0033
1621.00,0.0033
1620.00,0.0034
1619.00,0.0034
1618.00,0.0035
1617.00,0.0036
1616.00,0.0038
1615.00,0.0040
1614.00,0.0042
1613.00,0.0045
1612.00,0.0050
1611.00,0.0055
1610.00,0.0063
1609.00,0.0075
1608.00,0.0090
1607.00,0.0109
1606.00,0.0131
1605.00,0.0156
1604.00,0.0181
1603.00,0.0204
1602.00,0.0219
1601.00,0.0225
1600.00,0.0219
1599.00,0.0203
1598.00,0.0182
1597.00,0.0158
1596.00,0.0136
1595.00,0.0118
1594.00,0.0103
1593.00,0.0092
1592.00,0.0083
1591.00,0.0076
1590.00,0.0072
1589.00,0.0069
1588.00,0.0070
1587.00,0.0074
1586.00,0.0082
1585.00,0.0090
1584.00,0.0097
1583.00,0.0099
1582.00,0.0095
1581.00,0.0086
1580.00,0.0076
1579.00,0.0066
1578.00,0.0058
1577.00,0.0050
1576.00,0.0044
1575.00,0.0041
1574.00,0.0038
1573.00,0.0037
1572.00,0.0035
1571.00,0.0034
1570.00,0.0032
1569.00,0.0030
1568.00,0.0029
1567.00,0.0028
1566.00,0.0028
1565.00,0.0028
1564.00,0.0027
1563.00,0.0027
1562.00,0.0027
1561.00,0.0027
1560.00,0.0028
1559.00,0.0028
1558.00,0.0028
1557.00,0.0029
1556.00,0.0029
1555.00,0.0029
1554.00,0.0030
1553.00,0.0031
1552.00,0.0032
1551.00,0.0033
1550.00,0.0034
1549.00,0.0035
1548.00,0.0036
1547.00,0.0037
1546.00,0.0038
1545.00,0.0038
1544.00,0.0038
1543.00,0.0039
1542.00,0.0039
1541.00,0.0038
1540.00,0.0038
1539.00,0.0038
1538.00,0.0037
1537.00,0.0037
1536.00,0.0036
1535.00,0.0035
1534.00,0.0033
1533.00,0.0032
1532.00,0.0031
1531.00,0.0030
1530.00,0.0029
1529.00,0.0029
1528.00,0.0028
1527.00,0.0027
1526.00,0.0027
1525.00,0.0026
1524.00,0.0026
1523.00,0.0025
1522.00,0.0026
1521.00,0.0026
1520.00,0.0027
1519.00,0.0027
1518.00,0.0028
1517.00,0.0028
1516.00,0.0028
1515.00,0.0029
1514.00,0.0030
1513.00,0.0031
1512.00,0.0032
1511.00,0.0032
1510.00,0.0033
1509.00,0.0033
1508.00,0.0035
1507.00,0.0037
1506.00,0.0042
1505.00,0.0047
1504.00,0.0052
1503.00,0.0058
1502.00,0.0066
1501.00,0.0078
1500.00,0.0095
1499.00,0.0123
1498.00,0.0168
1497.00,0.0238
1496.00,0.0331
1495.00,0.0427
1494.00,0.0506
1493.00,0.0553
1492.00,0.0558
1491.00,0.0513
1490.00,0.0428
1489.00,0.0336
1488.00,0.0264
1487.00,0.0212
1486.00,0.0175
1485.00,0.0148
1484.00,0.0127
1483.00,0.0110
1482.00,0.0096
1481.00,0.0086
1480.00,0.0078
1479.00,0.0073
1478.00,0.0068
1477.00,0.0065
1476.00,0.0063
1475.00,0.0061
1474.00,0.0060
1473.00,0.0059
1472.00,0.0059
1471.00,0.0059
1470.00,0.0060
1469.00,0.0061
1468.00,0.0063
1467.00,0.0065
1466.00,0.0067
1465.00,0.0070
1464.00,0.0074
1463.00,0.0079
1462.00,0.0085
1461.00,0.0093
1460.00,0.0105
1459.00,0.0125
1458.00,0.0164
1457.00,0.0234
1456.00,0.0324
1455.00,0.0410
1454.00,0.0483
1453.00,0.0539
1452.00,0.0568
1451.00,0.0566
1450.00,0.0537
1449.00,0.0495
1448.00,0.0449
1447.00,0.0407
1446.00,0.0374
1445.00,0.0347
1444.00,0.0321
1443.00,0.0295
1442.00,0.0271
1441.00,0.0251
1440.00,0.0233
1439.00,0.0217
1438.00,0.0200
1437.00,0.0180
1436.00,0.0160
1435.00,0.0144
1434.00,0.0133
1433.00,0.0123
1432.00,0.0114
1431.00,0.0105
1430.00,0.0097
1429.00,0.0091
1428.00,0.0086
1427.00,0.0083
1426.00,0.0080
1425.00,0.0077
1424.00,0.0075
1423.00,0.0073
1422.00,0.0071
1421.00,0.0070
1420.00,0.0069
1419.00,0.0067
1418.00,0.0066
1417.00,0.0065
1416.00,0.0065
1415.00,0.0066
1414.00,0.0068
1413.00,0.0070
1412.00,0.0069
1411.00,0.0067
1410.00,0.0065
1409.00,0.0063
1408.00,0.0063
1407.00,0.0063
1406.00,0.0063
1405.00,0.0063
1404.00,0.0063
1403.00,0.0064
1402.00,0.0064
1401.00,0.0064
1400.00,0.0064
1399.00,0.0064
1398.00,0.0064
1397.00,0.0065
1396.00,0.0065
1395.00,0.0066
1394.00,0.0068
1393.00,0.0070
1392.00,0.0072
1391.00,0.0074
1390.00,0.0077
1389.00,0.0080
1388.00,0.0084
1387.00,0.0087
1386.00,0.0092
1385.00,0.0096
1384.00,0.0100
1383.00,0.0103
1382.00,0.0107
1381.00,0.0111
1380.00,0.0114
1379.00,0.0118
1378.00,0.0122
1377.00,0.0126
1376.00,0.0129
1375.00,0.0132
1374.00,0.0135
1373.00,0.0136
1372.00,0.0137
1371.00,0.0137
1370.00,0.0137
1369.00,0.0136
1368.00,0.0135
1367.00,0.0134
1366.00,0.0133
1365.00,0.0132
1364.00,0.0131
1363.00,0.0129
1362.00,0.0127
1361.00,0.0125
1360.00,0.0124
1359.00,0.0122
1358.00,0.0121
1357.00,0.0119
1356.00,0.0117
1355.00,0.0116
1354.00,0.0115
1353.00,0.0114
1352.00,0.0114
1351.00,0.0114
1350.00,0.0113
1349.00,0.0113
1348.00,0.0112
1347.00,0.0110
1346.00,0.0109
1345.00,0.0107
1344.00,0.0105
1343.00,0.0104
1342.00,0.0102
1341.00,0.0100
1340.00,0.0098
1339.00,0.0097
1338.00,0.0096
1337.00,0.0097
1336.00,0.0098
1335.00,0.0100
1334.00,0.0102
1333.00,0.0105
1332.00,0.0107
1331.00,0.0110
1330.00,0.0112
1329.00,0.0112
1328.00,0.0112
1327.00,0.0112
1326.00,0.0110
1325.00,0.0109
1324.00,0.0107
1323.00,0.0106
1322.00,0.0104
1321.00,0.0104
1320.00,0.0103
1319.00,0.0103
1318.00,0.0104
1317.00,0.0105
1316.00,0.0106
1315.00,0.0107
1314.00,0.0108
1313.00,0.0108
1312.00,0.0109
1311.00,0.0108
1310.00,0.0108
1309.00,0.0106
1308.00,0.0105
1307.00,0.0103
1306.00,0.0101
1305.00,0.0099
1304.00,0.0098
1303.00,0.0096
1302.00,0.0094
1301.00,0.0092
1300.00,0.0090
1299.00,0.0088
1298.00,0.0087
1297.00,0.0087
1296.00,0.0086
1295.00,0.0086
1294.00,0.0085
1293.00,0.0084
1292.00,0.0084
1291.00,0.0083
1290.00,0.0082
1289.00,0.0081
1288.00,0.0080
1287.00,0.0080
1286.00,0.0079
1285.00,0.0079
1284.00,0.0079
1283.00,0.0079
1282.00,0.0079
1281.00,0.0079
1280.00,0.0078
1279.00,0.0077
1278.00,0.0076
1277.00,0.0074
1276.00,0.0073
1275.00,0.0072
1274.00,0.0070
1273.00,0.0069
1272.00,0.0067
1271.00,0.0066
1270.00,0.0065
1269.00,0.0064
1268.00,0.0063
1267.00,0.0063
1266.00,0.0062
1265.00,0.0061
1264.00,0.0061
1263.00,0.0061
1262.00,0.0060
1261.00,0.0060
1260.00,0.0059
1259.00,0.0059
1258.00,0.0059
1257.00,0.0060
1256.00,0.0060
1255.00,0.0060
1254.00,0.0060
1253.00,0.0061
1252.00,0.0061
1251.00,0.0061
1250.00,0.0062
1249.00,0.0062
1248.00,0.0063
1247.00,0.0063
1246.00,0.0063
1245.00,0.0063
1244.00,0.0063
1243.00,0.0062
1242.00,0.0062
1241.00,0.0062
1240.00,0.0062
1239.00,0.0062
1238.00,0.0061
1237.00,0.0061
1236.00,0.0061
1235.00,0.0061
1234.00,0.0060
1233.00,0.0060
1232.00,0.0060
1231.00,0.0060
1230.00,0.0060
1229.00,0.0060
1228.00,0.0061
1227.00,0.0061
1226.00,0.0061
1225.00,0.0061
1224.00,0.0061
1223.00,0.0061
1222.00,0.0061
1221.00,0.0061
1220.00,0.0061
1219.00,0.0061
1218.00,0.0062
1217.00,0.0062
1216.00,0.0062
1215.00,0.0063
1214.00,0.0063
1213.00,0.0064
1212.00,0.0065
1211.00,0.0067
1210.00,0.0068
1209.00,0.0069
1208.00,0.0071
1207.00,0.0073
1206.00,0.0075
1205.00,0.0077
1204.00,0.0079
1203.00,0.0081
1202.00,0.0084
1201.00,0.0086
1200.00,0.0089
1199.00,0.0090
1198.00,0.0092
1197.00,0.0093
1196.00,0.0093
1195.00,0.0093
1194.00,0.0094
1193.00,0.0094
1192.00,0.0095
1191.00,0.0096
1190.00,0.0097
1189.00,0.0098
1188.00,0.0100
1187.00,0.0103
1186.00,0.0108
1185.00,0.0114
1184.00,0.0120
1183.00,0.0126
1182.00,0.0129
1181.00,0.0130
1180.00,0.0128
1179.00,0.0123
1178.00,0.0115
1177.00,0.0107
1176.00,0.0099
1175.00,0.0093
1174.00,0.0089
1173.00,0.0087
1172.00,0.0086
1171.00,0.0085
1170.00,0.0083
1169.00,0.0082
1168.00,0.0082
1167.00,0.0083
1166.00,0.0084
1165.00,0.0085
1164.00,0.0087
1163.00,0.0089
1162.00,0.0092
1161.00,0.0096
1160.00,0.0103
1159.00,0.0111
1158.00,0.0121
1157.00,0.0130
1156.00,0.0138
1155.00,0.0144
1154.00,0.0144
1153.00,0.0141
1152.00,0.0135
1151.00,0.0127
1150.00,0.0120
1149.00,0.0115
1148.00,0.0114
1147.00,0.0117
1146.00,0.0122
1145.00,0.0129
1144.00,0.0137
1143.00,0.0145
1142.00,0.0154
1141.00,0.0162
1140.00,0.0167
1139.00,0.0167
1138.00,0.0163
1137.00,0.0158
1136.00,0.0153
1135.00,0.0148
1134.00,0.0143
1133.00,0.0138
1132.00,0.0133
1131.00,0.0128
1130.00,0.0124
1129.00,0.0120
1128.00,0.0115
1127.00,0.0111
1126.00,0.0107
1125.00,0.0102
1124.00,0.0098
1123.00,0.0094
1122.00,0.0091
1121.00,0.0089
1120.00,0.0087
1119.00,0.0087
1118.00,0.0086
1117.00,0.0087
1116.00,0.0087
1115.00,0.0087
1114.00,0.0088
1113.00,0.0088
1112.00,0.0088
1111.00,0.0087
1110.00,0.0086
1109.00,0.0085
1108.00,0.0084
1107.00,0.0083
1106.00,0.0082
1105.00,0.0082
1104.00,0.0083
1103.00,0.0083
1102.00,0.0084
1101.00,0.0084
1100.00,0.0084
1099.00,0.0085
1098.00,0.0086
1097.00,0.0087
1096.00,0.0089
1095.00,0.0090
1094.00,0.0091
1093.00,0.0092
1092.00,0.0093
1091.00,0.0095
1090.00,0.0096
1089.00,0.0098
1088.00,0.0100
1087.00,0.0102
1086.00,0.0105
1085.00,0.0108
1084.00,0.0111
1083.00,0.0116
1082.00,0.0120
1081.00,0.0124
1080.00,0.0128
1079.00,0.0132
1078.00,0.0136
1077.00,0.0141
1076.00,0.0147
1075.00,0.0154
1074.00,0.0162
1073.00,0.0170
1072.00,0.0177
1071.00,0.0183
1070.00,0.0187
1069.00,0.0189
1068.00,0.0188
1067.00,0.0185
1066.00,0.0180
1065.00,0.0174
1064.00,0.0168
1063.00,0.0161
1062.00,0.0154
1061.00,0.0148
1060.00,0.0143
1059.00,0.0138
1058.00,0.0134
1057.00,0.0130
1056.00,0.0127
1055.00,0.0124
1054.00,0.0122
1053.00,0.0119
1052.00,0.0117
1051.00,0.0115
1050.00,0.0113
1049.00,0.0110
1048.00,0.0108
1047.00,0.0106
1046.00,0.0105
1045.00,0.0104
1044.00,0.0103
1043.00,0.0103
1042.00,0.0103
1041.00,0.0105
1040.00,0.0108
1039.00,0.0113
1038.00,0.0121
1037.00,0.0132
1036.00,0.0147
1035.00,0.0168
1034.00,0.0194
1033.00,0.0223
1032.00,0.0253
1031.00,0.0280
1030.00,0.0302
1029.00,0.0317
1028.00,0.0323
1027.00,0.0318
1026.00,0.0304
1025.00,0.0284
1024.00,0.0263
1023.00,0.0242
1022.00,0.0224
1021.00,0.0209
1020.00,0.0196
1019.00,0.0185
1018.00,0.0176
1017.00,0.0168
1016.00,0.0161
1015.00,0.0154
1014.00,0.0149
1013.00,0.0144
1012.00,0.0141
1011.00,0.0138
1010.00,0.0136
1009.00,0.0134
1008.00,0.0135
1007.00,0.0136
1006.00,0.0139
1005.00,0.0143
1004.00,0.0146
1003.00,0.0146
1002.00,0.0143
1001.00,0.0137
1000.00,0.0129
999.00,0.0121
998.00,0.0115
997.00,0.0111
996.00,0.0108
995.00,0.0106
994.00,0.0106
993.00,0.0106
992.00,0.0106
991.00,0.0107
990.00,0.0108
989.00,0.0110
988.00,0.0112
987.00,0.0114
986.00,0.0117
985.00,0.0121
984.00,0.0124
983.00,0.0127
982.00,0.0129
981.00,0.0131
980.00,0.0132
979.00,0.0131
978.00,0.0130
977.00,0.0127
976.00,0.0125
975.00,0.0122
974.00,0.0120
973.00,0.0119
972.00,0.0120
971.00,0.0122
970.00,0.0125
969.00,0.0130
968.00,0.0135
967.00,0.0139
966.00,0.0142
965.00,0.0145
964.00,0.0146
963.00,0.0145
962.00,0.0142
961.00,0.0138
960.00,0.0133
959.00,0.0128
958.00,0.0122
957.00,0.0118
956.00,0.0115
955.00,0.0113
954.00,0.0112
953.00,0.0111
952.00,0.0111
951.00,0.0111
950.00,0.0112
949.00,0.0113
948.00,0.0114
947.00,0.0115
946.00,0.0118
945.00,0.0120
944.00,0.0121
943.00,0.0121
942.00,0.0120
941.00,0.0118
940.00,0.0116
939.00,0.0113
938.00,0.0110
937.00,0.0107
936.00,0.0103
935.00,0.0099
934.00,0.0096
933.00,0.0093
932.00,0.0091
931.00,0.0089
930.00,0.0087
929.00,0.0086
928.00,0.0085
927.00,0.0085
926.00,0.0085
925.00,0.0086
924.00,0.0086
923.00,0.0087
922.00,0.0089
921.00,0.0091
920.00,0.0094
919.00,0.0097
918.00,0.0101
917.00,0.0107
916.00,0.0114
915.00,0.0124
914.00,0.0135
913.00,0.0148
912.00,0.0162
911.00,0.0176
910.00,0.0189
909.00,0.0202
908.00,0.0211
907.00,0.0217
906.00,0.0218
905.00,0.0214
904.00,0.0205
903.00,0.0193
902.00,0.0178
901.00,0.0162
900.00,0.0146
899.00,0.0132
898.00,0.0120
897.00,0.0109
896.00,0.0101
895.00,0.0094
894.00,0.0089
893.00,0.0085
892.00,0.0082
891.00,0.0079
890.00,0.0076
889.00,0.0074
888.00,0.0072
887.00,0.0070
886.00,0.0068
885.00,0.0066
884.00,0.0065
883.00,0.0063
882.00,0.0062
881.00,0.0061
880.00,0.0061
879.00,0.0060
878.00,0.0060
877.00,0.0059
876.00,0.0059
875.00,0.0059
874.00,0.0058
873.00,0.0058
872.00,0.0058
871.00,0.0058
870.00,0.0058
869.00,0.0058
868.00,0.0057
867.00,0.0057
866.00,0.0056
865.00,0.0055
864.00,0.0054
863.00,0.0054
862.00,0.0053
861.00,0.0054
860.00,0.0054
859.00,0.0054
858.00,0.0054
857.00,0.0055
856.00,0.0056
855.00,0.0058
854.00,0.0059
853.00,0.0062
852.00,0.0065
851.00,0.0069
850.00,0.0074
849.00,0.0080
848.00,0.0086
847.00,0.0092
846.00,0.0098
845.00,0.0104
844.00,0.0108
843.00,0.0111
842.00,0.0112
841.00,0.0112
840.00,0.0110
839.00,0.0107
838.00,0.0102
837.00,0.0095
836.00,0.0088
835.00,0.0080
834.00,0.0073
833.00,0.0068
832.00,0.0063
831.00,0.0059
830.00,0.0057
829.00,0.0055
828.00,0.0055
827.00,0.0054
826.00,0.0054
825.00,0.0054
824.00,0.0053
823.00,0.0053
822.00,0.0053
821.00,0.0053
820.00,0.0053
819.00,0.0053
818.00,0.0054
817.00,0.0054
816.00,0.0054
815.00,0.0054
814.00,0.0055
813.00,0.0055
812.00,0.0056
811.00,0.0056
810.00,0.0057
809.00,0.0057
808.00,0.0057
807.00,0.0058
806.00,0.0058
805.00,0.0058
804.00,0.0059
803.00,0.0060
802.00,0.0062
801.00,0.0063
800.00,0.0065
799.00,0.0067
798.00,0.0070
797.00,0.0073
796.00,0.0076
795.00,0.0080
794.00,0.0084
793.00,0.0089
792.00,0.0094
791.00,0.0099
790.00,0.0105
789.00,0.0112
788.00,0.0119
787.00,0.0126
786.00,0.0133
785.00,0.0141
784.00,0.0150
783.00,0.0159
782.00,0.0170
781.00,0.0181
780.00,0.0195
779.00,0.0211
778.00,0.0230
777.00,0.0250
776.00,0.0273
775.00,0.0298
774.00,0.0326
773.00,0.0355
772.00,0.0387
771.00,0.0421
770.00,0.0457
769.00,0.0495
768.00,0.0532
767.00,0.0569
766.00,0.0605
765.00,0.0640
764.00,0.0677
763.00,0.0714
762.00,0.0751
761.00,0.0790
760.00,0.0827
759.00,0.0862
758.00,0.0892
757.00,0.0915
756.00,0.0930
755.00,0.0937
754.00,0.0938
753.00,0.0935
752.00,0.0932
751.00,0.0928
750.00,0.0926
749.00,0.0923
748.00,0.0917
747.00,0.0903
746.00,0.0877
745.00,0.0837
744.00,0.0785
743.00,0.0725
742.00,0.0662
741.00,0.0599
740.00,0.0541
739.00,0.0488
738.00,0.0439
737.00,0.0394
736.00,0.0351
735.00,0.0310
734.00,0.0271
733.00,0.0235
732.00,0.0205
731.00,0.0180
730.00,0.0160
729.00,0.0146
728.00,0.0135
727.00,0.0128
726.00,0.0122
725.00,0.0118
724.00,0.0116
723.00,0.0114
722.00,0.0114
721.00,0.0113
720.00,0.0114
719.00,0.0117
718.00,0.0120
717.00,0.0126
716.00,0.0133
715.00,0.0144
714.00,0.0159
713.00,0.0180
712.00,0.0210
711.00,0.0251
710.00,0.0306
709.00,0.0380
708.00,0.0474
707.00,0.0590
706.00,0.0730
705.00,0.0894
704.00,0.1083
703.00,0.1294
702.00,0.1526
701.00,0.1775
700.00,0.2035
699.00,0.2300
698.00,0.2559
697.00,0.2793
696.00,0.2964
695.00,0.3029
694.00,0.2954
693.00,0.2743
692.00,0.2440
691.00,0.2109
690.00,0.1798
689.00,0.1534
688.00,0.1319
687.00,0.1149
686.00,0.1016
685.00,0.0911
684.00,0.0825
683.00,0.0755
682.00,0.0695
681.00,0.0644
680.00,0.0601
679.00,0.0563
678.00,0.0531
677.00,0.0503
676.00,0.0480
675.00,0.0460
674.00,0.0443
673.00,0.0427
672.00,0.0413
671.00,0.0400
670.00,0.0387
669.00,0.0373
668.00,0.0356
667.00,0.0341
666.00,0.0329
665.00,0.0319
664.00,0.0309
663.00,0.0297
662.00,0.0286
661.00,0.0274
660.00,0.0262
659.00,0.0251
658.00,0.0240
657.00,0.0230
656.00,0.0220
655.00,0.0211
654.00,0.0203
653.00,0.0196
652.00,0.0189
651.00,0.0183
650.00,0.0178
649.00,0.0173
648.00,0.0168
647.00,0.0164
646.00,0.0161
645.00,0.0158
644.00,0.0155
643.00,0.0154
642.00,0.0153
641.00,0.0153
640.00,0.0153
639.00,0.0155
638.00,0.0157
637.00,0.0161
636.00,0.0164
635.00,0.0168
634.00,0.0172
633.00,0.0176
632.00,0.0179
631.00,0.0183
630.00,0.0187
629.00,0.0190
628.00,0.0193
627.00,0.0195
626.00,0.0197
625.00,0.0199
624.00,0.0202
623.00,0.0207
622.00,0.0211
621.00,0.0214
620.00,0.0213
619.00,0.0209
618.00,0.0203
617.00,0.0197
616.00,0.0191
615.00,0.0188
614.00,0.0184
613.00,0.0181
612.00,0.0177
611.00,0.0172
610.00,0.0169
609.00,0.0167
608.00,0.0166
607.00,0.0165
606.00,0.0165
605.00,0.0165
604.00,0.0166
603.00,0.0167
602.00,0.0167
601.00,0.0168
600.00,0.0170
599.00,0.0172
598.00,0.0174
597.00,0.0176
596.00,0.0178
595.00,0.0181
594.00,0.0183
593.00,0.0184
592.00,0.0186
591.00,0.0189
590.00,0.0192
589.00,0.0196
588.00,0.0199
587.00,0.0202
586.00,0.0205
585.00,0.0210
584.00,0.0215
583.00,0.0221
582.00,0.0227
581.00,0.0234
580.00,0.0242
579.00,0.0251
578.00,0.0262
577.00,0.0273
576.00,0.0285
575.00,0.0298
574.00,0.0312
573.00,0.0326
572.00,0.0340
571.00,0.0353
570.00,0.0366
569.00,0.0377
568.00,0.0388
567.00,0.0398
566.00,0.0409
565.00,0.0422
564.00,0.0435
563.00,0.0449
562.00,0.0462
561.00,0.0474
560.00,0.0487
559.00,0.0500
558.00,0.0513
557.00,0.0525
556.00,0.0539
555.00,0.0553
554.00,0.0568
553.00,0.0584
552.00,0.0601
551.00,0.0620
550.00,0.0639
549.00,0.0661
548.00,0.0686
547.00,0.0713
546.00,0.0742
545.00,0.0772
544.00,0.0805
543.00,0.0839
542.00,0.0871
541.00,0.0901
540.00,0.0926
539.00,0.0943
538.00,0.0948
537.00,0.0941
536.00,0.0924
535.00,0.0895
534.00,0.0857
533.00,0.0813
532.00,0.0767
531.00,0.0719
530.00,0.0672
529.00,0.0627
528.00,0.0585
527.00,0.0545
526.00,0.0508
525.00,0.0475
524.00,0.0446
523.00,0.0422
522.00,0.0400
521.00,0.0381
520.00,0.0365
519.00,0.0350
518.00,0.0337
517.00,0.0326
516.00,0.0318
515.00,0.0310
514.00,0.0301
513.00,0.0293
512.00,0.0283
511.00,0.0273
510.00,0.0264
509.00,0.0256
508.00,0.0248
507.00,0.0241
506.00,0.0233
505.00,0.0226
504.00,0.0219
503.00,0.0213
502.00,0.0207
501.00,0.0202
500.00,0.0197
499.00,0.0193
498.00,0.0191
497.00,0.0189
496.00,0.0186
495.00,0.0183
494.00,0.0179
493.00,0.0175
492.00,0.0173
491.00,0.0172
490.00,0.0170
489.00,0.0168
488.00,0.0166
487.00,0.0163
486.00,0.0160
485.00,0.0158
484.00,0.0157
483.00,0.0155
482.00,0.0153
481.00,0.0151
480.00,0.0150
479.00,0.0148
478.00,0.0147
477.00,0.0146
476.00,0.0145
475.00,0.0143
474.00,0.0141
473.00,0.0138
472.00,0.0136
471.00,0.0135
470.00,0.0134
469.00,0.0135
468.00,0.0134
467.00,0.0133
466.00,0.0132
465.00,0.0131
464.00,0.0131
463.00,0.0132
462.00,0.0131
461.00,0.0130
460.00,0.0128
459.00,0.0129
458.00,0.0131
457.00,0.0134
456.00,0.0135
455.00,0.0133
454.00,0.0130
453.00,0.0128
452.00,0.0127
451.00,0.0126
450.00,0.0124
449.00,0.0122
448.00,0.0119
447.00,0.0117
446.00,0.0116
445.00,0.0116
444.00,0.0114
443.00,0.0113
442.00,0.0113
441.00,0.0115
440.00,0.0116
439.00,0.0116
438.00,0.0114
437.00,0.0112
436.00,0.0111
435.00,0.0110
434.00,0.0111
433.00,0.0111
432.00,0.0111
431.00,0.0109
430.00,0.0108
429.00,0.0108
428.00,0.0108
427.00,0.0108
426.00,0.0107
425.00,0.0105
424.00,0.0104
423.00,0.0104
422.00,0.0109
421.00,0.0115
420.00,0.0119
419.00,0.0114
418.00,0.0106
417.00,0.0102
416.00,0.0102
415.00,0.0104
414.00,0.0104
413.00,0.0104
412.00,0.0104
411.00,0.0108
410.00,0.0116
409.00,0.0122
408.00,0.0122
407.00,0.0117
406.00,0.0112
405.00,0.0113
404.00,0.0120
403.00,0.0125
402.00,0.0124
401.00,0.0117
400.00,0.0111
