Created as New Dataset,Sample 692 By YargerLab Date Friday, June 13 2025
cm-1,A
4000.00,0.0024
3999.00,0.0024
3998.00,0.0024
3997.00,0.0024
3996.00,0.0024
3995.00,0.0024
3994.00,0.0024
3993.00,0.0024
3992.00,0.0023
3991.00,0.0023
3990.00,0.0023
3989.00,0.0024
3988.00,0.0024
3987.00,0.0024
3986.00,0.0024
3985.00,0.0023
3984.00,0.0023
3983.00,0.0023
3982.00,0.0023
3981.00,0.0023
3980.00,0.0023
3979.00,0.0023
3978.00,0.0023
3977.00,0.0023
3976.00,0.0023
3975.00,0.0023
3974.00,0.0023
3973.00,0.0023
3972.00,0.0023
3971.00,0.0023
3970.00,0.0023
3969.00,0.0023
3968.00,0.0023
3967.00,0.0023
3966.00,0.0023
3965.00,0.0023
3964.00,0.0023
3963.00,0.0023
3962.00,0.0023
3961.00,0.0023
3960.00,0.0023
3959.00,0.0023
3958.00,0.0023
3957.00,0.0023
3956.00,0.0023
3955.00,0.0023
3954.00,0.0023
3953.00,0.0023
3952.00,0.0023
3951.00,0.0023
3950.00,0.0023
3949.00,0.0023
3948.00,0.0023
3947.00,0.0023
3946.00,0.0023
3945.00,0.0023
3944.00,0.0023
3943.00,0.0023
3942.00,0.0023
3941.00,0.0023
3940.00,0.0023
3939.00,0.0023
3938.00,0.0023
3937.00,0.0023
3936.00,0.0023
3935.00,0.0023
3934.00,0.0023
3933.00,0.0023
3932.00,0.0023
3931.00,0.0023
3930.00,0.0023
3929.00,0.0023
3928.00,0.0023
3927.00,0.0023
3926.00,0.0023
3925.00,0.0023
3924.00,0.0022
3923.00,0.0022
3922.00,0.0022
3921.00,0.0022
3920.00,0.0022
3919.00,0.0022
3918.00,0.0022
3917.00,0.0022
3916.00,0.0023
3915.00,0.0023
3914.00,0.0023
3913.00,0.0023
3912.00,0.0023
3911.00,0.0023
3910.00,0.0023
3909.00,0.0023
3908.00,0.0022
3907.00,0.0022
3906.00,0.0021
3905.00,0.0021
3904.00,0.0021
3903.00,0.0021
3902.00,0.0021
3901.00,0.0020
3900.00,0.0020
3899.00,0.0021
3898.00,0.0021
3897.00,0.0021
3896.00,0.0021
3895.00,0.0022
3894.00,0.0022
3893.00,0.0022
3892.00,0.0022
3891.00,0.0022
3890.00,0.0022
3889.00,0.0021
3888.00,0.0021
3887.00,0.0021
3886.00,0.0022
3885.00,0.0022
3884.00,0.0021
3883.00,0.0021
3882.00,0.0021
3881.00,0.0021
3880.00,0.0022
3879.00,0.0022
3878.00,0.0022
3877.00,0.0022
3876.00,0.0022
3875.00,0.0022
3874.00,0.0022
3873.00,0.0021
3872.00,0.0021
3871.00,0.0021
3870.00,0.0021
3869.00,0.0021
3868.00,0.0021
3867.00,0.0020
3866.00,0.0021
3865.00,0.0021
3864.00,0.0021
3863.00,0.0021
3862.00,0.0021
3861.00,0.0021
3860.00,0.0021
3859.00,0.0021
3858.00,0.0021
3857.00,0.0020
3856.00,0.0020
3855.00,0.0020
3854.00,0.0020
3853.00,0.0019
3852.00,0.0019
3851.00,0.0019
3850.00,0.0019
3849.00,0.0020
3848.00,0.0021
3847.00,0.0022
3846.00,0.0022
3845.00,0.0022
3844.00,0.0022
3843.00,0.0021
3842.00,0.0021
3841.00,0.0021
3840.00,0.0021
3839.00,0.0021
3838.00,0.0021
3837.00,0.0021
3836.00,0.0021
3835.00,0.0021
3834.00,0.0021
3833.00,0.0021
3832.00,0.0022
3831.00,0.0022
3830.00,0.0022
3829.00,0.0022
3828.00,0.0022
3827.00,0.0022
3826.00,0.0022
3825.00,0.0022
3824.00,0.0022
3823.00,0.0021
3822.00,0.0022
3821.00,0.0022
3820.00,0.0021
3819.00,0.0021
3818.00,0.0021
3817.00,0.0021
3816.00,0.0022
3815.00,0.0022
3814.00,0.0022
3813.00,0.0023
3812.00,0.0023
3811.00,0.0023
3810.00,0.0022
3809.00,0.0022
3808.00,0.0022
3807.00,0.0022
3806.00,0.0022
3805.00,0.0022
3804.00,0.0022
3803.00,0.0022
3802.00,0.0022
3801.00,0.0022
3800.00,0.0021
3799.00,0.0021
3798.00,0.0021
3797.00,0.0022
3796.00,0.0022
3795.00,0.0022
3794.00,0.0022
3793.00,0.0023
3792.00,0.0023
3791.00,0.0023
3790.00,0.0023
3789.00,0.0023
3788.00,0.0023
3787.00,0.0023
3786.00,0.0023
3785.00,0.0023
3784.00,0.0023
3783.00,0.0023
3782.00,0.0023
3781.00,0.0023
3780.00,0.0023
3779.00,0.0023
3778.00,0.0023
3777.00,0.0022
3776.00,0.0022
3775.00,0.0022
3774.00,0.0022
3773.00,0.0022
3772.00,0.0022
3771.00,0.0022
3770.00,0.0022
3769.00,0.0022
3768.00,0.0022
3767.00,0.0021
3766.00,0.0022
3765.00,0.0022
3764.00,0.0023
3763.00,0.0023
3762.00,0.0022
3761.00,0.0022
3760.00,0.0022
3759.00,0.0022
3758.00,0.0022
3757.00,0.0022
3756.00,0.0022
3755.00,0.0021
3754.00,0.0021
3753.00,0.0020
3752.00,0.0020
3751.00,0.0019
3750.00,0.0019
3749.00,0.0019
3748.00,0.0019
3747.00,0.0018
3746.00,0.0018
3745.00,0.0019
3744.00,0.0019
3743.00,0.0019
3742.00,0.0019
3741.00,0.0019
3740.00,0.0019
3739.00,0.0019
3738.00,0.0019
3737.00,0.0019
3736.00,0.0019
3735.00,0.0019
3734.00,0.0019
3733.00,0.0019
3732.00,0.0020
3731.00,0.0020
3730.00,0.0021
3729.00,0.0021
3728.00,0.0021
3727.00,0.0021
3726.00,0.0021
3725.00,0.0021
3724.00,0.0021
3723.00,0.0021
3722.00,0.0021
3721.00,0.0021
3720.00,0.0021
3719.00,0.0021
3718.00,0.0021
3717.00,0.0021
3716.00,0.0021
3715.00,0.0021
3714.00,0.0021
3713.00,0.0021
3712.00,0.0021
3711.00,0.0021
3710.00,0.0020
3709.00,0.0021
3708.00,0.0021
3707.00,0.0021
3706.00,0.0021
3705.00,0.0021
3704.00,0.0021
3703.00,0.0021
3702.00,0.0021
3701.00,0.0021
3700.00,0.0021
3699.00,0.0021
3698.00,0.0021
3697.00,0.0021
3696.00,0.0021
3695.00,0.0021
3694.00,0.0020
3693.00,0.0020
3692.00,0.0020
3691.00,0.0020
3690.00,0.0020
3689.00,0.0020
3688.00,0.0020
3687.00,0.0020
3686.00,0.0020
3685.00,0.0021
3684.00,0.0021
3683.00,0.0021
3682.00,0.0021
3681.00,0.0021
3680.00,0.0021
3679.00,0.0020
3678.00,0.0019
3677.00,0.0019
3676.00,0.0019
3675.00,0.0019
3674.00,0.0018
3673.00,0.0018
3672.00,0.0018
3671.00,0.0018
3670.00,0.0019
3669.00,0.0019
3668.00,0.0019
3667.00,0.0020
3666.00,0.0020
3665.00,0.0020
3664.00,0.0021
3663.00,0.0021
3662.00,0.0021
3661.00,0.0021
3660.00,0.0021
3659.00,0.0021
3658.00,0.0021
3657.00,0.0021
3656.00,0.0021
3655.00,0.0020
3654.00,0.0020
3653.00,0.0020
3652.00,0.0020
3651.00,0.0020
3650.00,0.0020
3649.00,0.0020
3648.00,0.0020
3647.00,0.0019
3646.00,0.0019
3645.00,0.0020
3644.00,0.0020
3643.00,0.0021
3642.00,0.0021
3641.00,0.0022
3640.00,0.0022
3639.00,0.0022
3638.00,0.0022
3637.00,0.0022
3636.00,0.0021
3635.00,0.0021
3634.00,0.0020
3633.00,0.0020
3632.00,0.0019
3631.00,0.0019
3630.00,0.0019
3629.00,0.0019
3628.00,0.0019
3627.00,0.0019
3626.00,0.0020
3625.00,0.0020
3624.00,0.0020
3623.00,0.0020
3622.00,0.0020
3621.00,0.0021
3620.00,0.0021
3619.00,0.0021
3618.00,0.0020
3617.00,0.0020
3616.00,0.0020
3615.00,0.0020
3614.00,0.0020
3613.00,0.0020
3612.00,0.0020
3611.00,0.0019
3610.00,0.0019
3609.00,0.0019
3608.00,0.0020
3607.00,0.0020
3606.00,0.0020
3605.00,0.0021
3604.00,0.0021
3603.00,0.0021
3602.00,0.0021
3601.00,0.0021
3600.00,0.0021
3599.00,0.0021
3598.00,0.0021
3597.00,0.0020
3596.00,0.0020
3595.00,0.0020
3594.00,0.0021
3593.00,0.0020
3592.00,0.0020
3591.00,0.0020
3590.00,0.0020
3589.00,0.0020
3588.00,0.0020
3587.00,0.0020
3586.00,0.0020
3585.00,0.0020
3584.00,0.0021
3583.00,0.0021
3582.00,0.0021
3581.00,0.0021
3580.00,0.0022
3579.00,0.0022
3578.00,0.0021
3577.00,0.0021
3576.00,0.0021
3575.00,0.0021
3574.00,0.0021
3573.00,0.0021
3572.00,0.0021
3571.00,0.0021
3570.00,0.0021
3569.00,0.0021
3568.00,0.0020
3567.00,0.0020
3566.00,0.0020
3565.00,0.0020
3564.00,0.0021
3563.00,0.0021
3562.00,0.0021
3561.00,0.0022
3560.00,0.0022
3559.00,0.0022
3558.00,0.0022
3557.00,0.0022
3556.00,0.0022
3555.00,0.0022
3554.00,0.0022
3553.00,0.0022
3552.00,0.0022
3551.00,0.0022
3550.00,0.0022
3549.00,0.0022
3548.00,0.0022
3547.00,0.0022
3546.00,0.0022
3545.00,0.0022
3544.00,0.0022
3543.00,0.0022
3542.00,0.0022
3541.00,0.0023
3540.00,0.0023
3539.00,0.0023
3538.00,0.0023
3537.00,0.0023
3536.00,0.0023
3535.00,0.0023
3534.00,0.0023
3533.00,0.0023
3532.00,0.0024
3531.00,0.0024
3530.00,0.0024
3529.00,0.0023
3528.00,0.0023
3527.00,0.0023
3526.00,0.0023
3525.00,0.0023
3524.00,0.0023
3523.00,0.0024
3522.00,0.0023
3521.00,0.0023
3520.00,0.0023
3519.00,0.0023
3518.00,0.0023
3517.00,0.0024
3516.00,0.0024
3515.00,0.0024
3514.00,0.0024
3513.00,0.0024
3512.00,0.0024
3511.00,0.0024
3510.00,0.0024
3509.00,0.0024
3508.00,0.0024
3507.00,0.0024
3506.00,0.0024
3505.00,0.0024
3504.00,0.0024
3503.00,0.0024
3502.00,0.0024
3501.00,0.0025
3500.00,0.0025
3499.00,0.0025
3498.00,0.0025
3497.00,0.0024
3496.00,0.0024
3495.00,0.0024
3494.00,0.0024
3493.00,0.0024
3492.00,0.0025
3491.00,0.0025
3490.00,0.0025
3489.00,0.0025
3488.00,0.0025
3487.00,0.0025
3486.00,0.0025
3485.00,0.0025
3484.00,0.0025
3483.00,0.0025
3482.00,0.0025
3481.00,0.0026
3480.00,0.0026
3479.00,0.0026
3478.00,0.0026
3477.00,0.0026
3476.00,0.0026
3475.00,0.0026
3474.00,0.0026
3473.00,0.0026
3472.00,0.0026
3471.00,0.0026
3470.00,0.0026
3469.00,0.0026
3468.00,0.0026
3467.00,0.0026
3466.00,0.0026
3465.00,0.0026
3464.00,0.0026
3463.00,0.0026
3462.00,0.0026
3461.00,0.0026
3460.00,0.0026
3459.00,0.0026
3458.00,0.0026
3457.00,0.0026
3456.00,0.0026
3455.00,0.0026
3454.00,0.0026
3453.00,0.0026
3452.00,0.0026
3451.00,0.0026
3450.00,0.0026
3449.00,0.0026
3448.00,0.0026
3447.00,0.0026
3446.00,0.0026
3445.00,0.0026
3444.00,0.0026
3443.00,0.0026
3442.00,0.0026
3441.00,0.0026
3440.00,0.0027
3439.00,0.0027
3438.00,0.0027
3437.00,0.0027
3436.00,0.0027
3435.00,0.0027
3434.00,0.0027
3433.00,0.0027
3432.00,0.0026
3431.00,0.0026
3430.00,0.0026
3429.00,0.0027
3428.00,0.0027
3427.00,0.0027
3426.00,0.0027
3425.00,0.0026
3424.00,0.0026
3423.00,0.0026
3422.00,0.0026
3421.00,0.0026
3420.00,0.0026
3419.00,0.0026
3418.00,0.0026
3417.00,0.0026
3416.00,0.0026
3415.00,0.0026
3414.00,0.0026
3413.00,0.0026
3412.00,0.0026
3411.00,0.0026
3410.00,0.0026
3409.00,0.0026
3408.00,0.0026
3407.00,0.0026
3406.00,0.0026
3405.00,0.0027
3404.00,0.0027
3403.00,0.0027
3402.00,0.0027
3401.00,0.0027
3400.00,0.0026
3399.00,0.0026
3398.00,0.0026
3397.00,0.0026
3396.00,0.0026
3395.00,0.0026
3394.00,0.0026
3393.00,0.0026
3392.00,0.0026
3391.00,0.0026
3390.00,0.0027
3389.00,0.0027
3388.00,0.0027
3387.00,0.0027
3386.00,0.0027
3385.00,0.0026
3384.00,0.0026
3383.00,0.0026
3382.00,0.0026
3381.00,0.0026
3380.00,0.0026
3379.00,0.0026
3378.00,0.0026
3377.00,0.0026
3376.00,0.0026
3375.00,0.0026
3374.00,0.0026
3373.00,0.0026
3372.00,0.0026
3371.00,0.0026
3370.00,0.0026
3369.00,0.0026
3368.00,0.0026
3367.00,0.0026
3366.00,0.0026
3365.00,0.0026
3364.00,0.0026
3363.00,0.0026
3362.00,0.0026
3361.00,0.0026
3360.00,0.0026
3359.00,0.0026
3358.00,0.0026
3357.00,0.0026
3356.00,0.0026
3355.00,0.0027
3354.00,0.0027
3353.00,0.0026
3352.00,0.0026
3351.00,0.0026
3350.00,0.0026
3349.00,0.0026
3348.00,0.0026
3347.00,0.0026
3346.00,0.0026
3345.00,0.0026
3344.00,0.0026
3343.00,0.0026
3342.00,0.0026
3341.00,0.0026
3340.00,0.0026
3339.00,0.0026
3338.00,0.0026
3337.00,0.0026
3336.00,0.0026
3335.00,0.0026
3334.00,0.0026
3333.00,0.0026
3332.00,0.0026
3331.00,0.0026
3330.00,0.0026
3329.00,0.0026
3328.00,0.0026
3327.00,0.0026
3326.00,0.0026
3325.00,0.0026
3324.00,0.0026
3323.00,0.0026
3322.00,0.0026
3321.00,0.0026
3320.00,0.0026
3319.00,0.0026
3318.00,0.0026
3317.00,0.0026
3316.00,0.0026
3315.00,0.0026
3314.00,0.0026
3313.00,0.0026
3312.00,0.0026
3311.00,0.0026
3310.00,0.0026
3309.00,0.0026
3308.00,0.0026
3307.00,0.0026
3306.00,0.0026
3305.00,0.0025
3304.00,0.0025
3303.00,0.0025
3302.00,0.0025
3301.00,0.0026
3300.00,0.0026
3299.00,0.0026
3298.00,0.0026
3297.00,0.0026
3296.00,0.0026
3295.00,0.0026
3294.00,0.0026
3293.00,0.0026
3292.00,0.0026
3291.00,0.0026
3290.00,0.0026
3289.00,0.0025
3288.00,0.0025
3287.00,0.0025
3286.00,0.0025
3285.00,0.0025
3284.00,0.0025
3283.00,0.0025
3282.00,0.0025
3281.00,0.0026
3280.00,0.0026
3279.00,0.0026
3278.00,0.0026
3277.00,0.0025
3276.00,0.0025
3275.00,0.0025
3274.00,0.0025
3273.00,0.0025
3272.00,0.0026
3271.00,0.0026
3270.00,0.0026
3269.00,0.0026
3268.00,0.0026
3267.00,0.0026
3266.00,0.0025
3265.00,0.0025
3264.00,0.0025
3263.00,0.0025
3262.00,0.0025
3261.00,0.0025
3260.00,0.0025
3259.00,0.0025
3258.00,0.0025
3257.00,0.0024
3256.00,0.0025
3255.00,0.0025
3254.00,0.0025
3253.00,0.0025
3252.00,0.0025
3251.00,0.0025
3250.00,0.0025
3249.00,0.0025
3248.00,0.0025
3247.00,0.0025
3246.00,0.0025
3245.00,0.0025
3244.00,0.0025
3243.00,0.0025
3242.00,0.0024
3241.00,0.0024
3240.00,0.0024
3239.00,0.0024
3238.00,0.0025
3237.00,0.0025
3236.00,0.0025
3235.00,0.0025
3234.00,0.0025
3233.00,0.0025
3232.00,0.0025
3231.00,0.0024
3230.00,0.0024
3229.00,0.0024
3228.00,0.0024
3227.00,0.0024
3226.00,0.0024
3225.00,0.0024
3224.00,0.0024
3223.00,0.0024
3222.00,0.0025
3221.00,0.0025
3220.00,0.0024
3219.00,0.0024
3218.00,0.0024
3217.00,0.0024
3216.00,0.0024
3215.00,0.0024
3214.00,0.0025
3213.00,0.0025
3212.00,0.0025
3211.00,0.0025
3210.00,0.0025
3209.00,0.0025
3208.00,0.0025
3207.00,0.0026
3206.00,0.0026
3205.00,0.0026
3204.00,0.0026
3203.00,0.0026
3202.00,0.0026
3201.00,0.0026
3200.00,0.0025
3199.00,0.0025
3198.00,0.0025
3197.00,0.0025
3196.00,0.0025
3195.00,0.0025
3194.00,0.0025
3193.00,0.0025
3192.00,0.0025
3191.00,0.0025
3190.00,0.0025
3189.00,0.0025
3188.00,0.0025
3187.00,0.0025
3186.00,0.0024
3185.00,0.0024
3184.00,0.0024
3183.00,0.0024
3182.00,0.0024
3181.00,0.0024
3180.00,0.0024
3179.00,0.0024
3178.00,0.0024
3177.00,0.0024
3176.00,0.0024
3175.00,0.0024
3174.00,0.0024
3173.00,0.0024
3172.00,0.0024
3171.00,0.0025
3170.00,0.0025
3169.00,0.0025
3168.00,0.0025
3167.00,0.0025
3166.00,0.0025
3165.00,0.0026
3164.00,0.0026
3163.00,0.0026
3162.00,0.0026
3161.00,0.0026
3160.00,0.0026
3159.00,0.0025
3158.00,0.0025
3157.00,0.0025
3156.00,0.0025
3155.00,0.0025
3154.00,0.0024
3153.00,0.0024
3152.00,0.0024
3151.00,0.0024
3150.00,0.0024
3149.00,0.0024
3148.00,0.0024
3147.00,0.0024
3146.00,0.0024
3145.00,0.0024
3144.00,0.0024
3143.00,0.0024
3142.00,0.0024
3141.00,0.0024
3140.00,0.0024
3139.00,0.0024
3138.00,0.0024
3137.00,0.0024
3136.00,0.0024
3135.00,0.0024
3134.00,0.0024
3133.00,0.0024
3132.00,0.0024
3131.00,0.0024
3130.00,0.0024
3129.00,0.0025
3128.00,0.0025
3127.00,0.0025
3126.00,0.0025
3125.00,0.0025
3124.00,0.0025
3123.00,0.0025
3122.00,0.0026
3121.00,0.0026
3120.00,0.0026
3119.00,0.0027
3118.00,0.0028
3117.00,0.0028
3116.00,0.0029
3115.00,0.0030
3114.00,0.0031
3113.00,0.0033
3112.00,0.0034
3111.00,0.0037
3110.00,0.0039
3109.00,0.0042
3108.00,0.0045
3107.00,0.0047
3106.00,0.0049
3105.00,0.0051
3104.00,0.0052
3103.00,0.0052
3102.00,0.0052
3101.00,0.0052
3100.00,0.0051
3099.00,0.0050
3098.00,0.0050
3097.00,0.0050
3096.00,0.0050
3095.00,0.0051
3094.00,0.0052
3093.00,0.0055
3092.00,0.0058
3091.00,0.0063
3090.00,0.0069
3089.00,0.0076
3088.00,0.0084
3087.00,0.0093
3086.00,0.0101
3085.00,0.0109
3084.00,0.0115
3083.00,0.0118
3082.00,0.0119
3081.00,0.0117
3080.00,0.0114
3079.00,0.0108
3078.00,0.0102
3077.00,0.0097
3076.00,0.0093
3075.00,0.0090
3074.00,0.0088
3073.00,0.0088
3072.00,0.0089
3071.00,0.0092
3070.00,0.0095
3069.00,0.0100
3068.00,0.0106
3067.00,0.0113
3066.00,0.0122
3065.00,0.0130
3064.00,0.0139
3063.00,0.0148
3062.00,0.0155
3061.00,0.0159
3060.00,0.0162
3059.00,0.0161
3058.00,0.0157
3057.00,0.0151
3056.00,0.0143
3055.00,0.0134
3054.00,0.0125
3053.00,0.0116
3052.00,0.0109
3051.00,0.0103
3050.00,0.0097
3049.00,0.0093
3048.00,0.0090
3047.00,0.0087
3046.00,0.0085
3045.00,0.0085
3044.00,0.0086
3043.00,0.0088
3042.00,0.0090
3041.00,0.0094
3040.00,0.0099
3039.00,0.0105
3038.00,0.0112
3037.00,0.0121
3036.00,0.0132
3035.00,0.0145
3034.00,0.0160
3033.00,0.0178
3032.00,0.0198
3031.00,0.0219
3030.00,0.0241
3029.00,0.0263
3028.00,0.0282
3027.00,0.0297
3026.00,0.0306
3025.00,0.0308
3024.00,0.0301
3023.00,0.0286
3022.00,0.0266
3021.00,0.0241
3020.00,0.0215
3019.00,0.0190
3018.00,0.0167
3017.00,0.0147
3016.00,0.0130
3015.00,0.0116
3014.00,0.0105
3013.00,0.0096
3012.00,0.0089
3011.00,0.0085
3010.00,0.0081
3009.00,0.0080
3008.00,0.0080
3007.00,0.0081
3006.00,0.0083
3005.00,0.0085
3004.00,0.0087
3003.00,0.0089
3002.00,0.0090
3001.00,0.0090
3000.00,0.0087
2999.00,0.0083
2998.00,0.0078
2997.00,0.0073
2996.00,0.0067
2995.00,0.0062
2994.00,0.0058
2993.00,0.0054
2992.00,0.0051
2991.00,0.0050
2990.00,0.0048
2989.00,0.0047
2988.00,0.0046
2987.00,0.0046
2986.00,0.0045
2985.00,0.0044
2984.00,0.0044
2983.00,0.0043
2982.00,0.0042
2981.00,0.0042
2980.00,0.0043
2979.00,0.0043
2978.00,0.0044
2977.00,0.0045
2976.00,0.0045
2975.00,0.0046
2974.00,0.0047
2973.00,0.0047
2972.00,0.0048
2971.00,0.0049
2970.00,0.0051
2969.00,0.0052
2968.00,0.0053
2967.00,0.0055
2966.00,0.0057
2965.00,0.0059
2964.00,0.0061
2963.00,0.0063
2962.00,0.0065
2961.00,0.0068
2960.00,0.0071
2959.00,0.0073
2958.00,0.0076
2957.00,0.0079
2956.00,0.0083
2955.00,0.0086
2954.00,0.0090
2953.00,0.0094
2952.00,0.0099
2951.00,0.0104
2950.00,0.0109
2949.00,0.0115
2948.00,0.0121
2947.00,0.0128
2946.00,0.0135
2945.00,0.0142
2944.00,0.0150
2943.00,0.0159
2942.00,0.0168
2941.00,0.0178
2940.00,0.0188
2939.00,0.0198
2938.00,0.0210
2937.00,0.0222
2936.00,0.0235
2935.00,0.0248
2934.00,0.0261
2933.00,0.0274
2932.00,0.0287
2931.00,0.0300
2930.00,0.0312
2929.00,0.0323
2928.00,0.0334
2927.00,0.0343
2926.00,0.0351
2925.00,0.0357
2924.00,0.0362
2923.00,0.0365
2922.00,0.0366
2921.00,0.0366
2920.00,0.0365
2919.00,0.0362
2918.00,0.0358
2917.00,0.0353
2916.00,0.0347
2915.00,0.0341
2914.00,0.0333
2913.00,0.0325
2912.00,0.0317
2911.00,0.0308
2910.00,0.0299
2909.00,0.0290
2908.00,0.0281
2907.00,0.0272
2906.00,0.0263
2905.00,0.0254
2904.00,0.0244
2903.00,0.0235
2902.00,0.0225
2901.00,0.0216
2900.00,0.0207
2899.00,0.0198
2898.00,0.0189
2897.00,0.0182
2896.00,0.0174
2895.00,0.0168
2894.00,0.0162
2893.00,0.0157
2892.00,0.0152
2891.00,0.0147
2890.00,0.0143
2889.00,0.0140
2888.00,0.0136
2887.00,0.0133
2886.00,0.0130
2885.00,0.0127
2884.00,0.0124
2883.00,0.0121
2882.00,0.0118
2881.00,0.0116
2880.00,0.0113
2879.00,0.0110
2878.00,0.0108
2877.00,0.0105
2876.00,0.0103
2875.00,0.0102
2874.00,0.0100
2873.00,0.0099
2872.00,0.0098
2871.00,0.0097
2870.00,0.0096
2869.00,0.0096
2868.00,0.0096
2867.00,0.0097
2866.00,0.0099
2865.00,0.0101
2864.00,0.0104
2863.00,0.0107
2862.00,0.0111
2861.00,0.0115
2860.00,0.0120
2859.00,0.0126
2858.00,0.0131
2857.00,0.0137
2856.00,0.0143
2855.00,0.0149
2854.00,0.0154
2853.00,0.0158
2852.00,0.0162
2851.00,0.0165
2850.00,0.0166
2849.00,0.0166
2848.00,0.0165
2847.00,0.0163
2846.00,0.0159
2845.00,0.0153
2844.00,0.0146
2843.00,0.0138
2842.00,0.0129
2841.00,0.0120
2840.00,0.0110
2839.00,0.0101
2838.00,0.0093
2837.00,0.0085
2836.00,0.0078
2835.00,0.0072
2834.00,0.0067
2833.00,0.0062
2832.00,0.0059
2831.00,0.0056
2830.00,0.0054
2829.00,0.0052
2828.00,0.0050
2827.00,0.0049
2826.00,0.0048
2825.00,0.0047
2824.00,0.0046
2823.00,0.0045
2822.00,0.0045
2821.00,0.0044
2820.00,0.0043
2819.00,0.0043
2818.00,0.0043
2817.00,0.0043
2816.00,0.0042
2815.00,0.0042
2814.00,0.0042
2813.00,0.0042
2812.00,0.0042
2811.00,0.0041
2810.00,0.0041
2809.00,0.0041
2808.00,0.0040
2807.00,0.0040
2806.00,0.0039
2805.00,0.0039
2804.00,0.0038
2803.00,0.0038
2802.00,0.0038
2801.00,0.0038
2800.00,0.0037
2799.00,0.0037
2798.00,0.0037
2797.00,0.0037
2796.00,0.0037
2795.00,0.0036
2794.00,0.0036
2793.00,0.0036
2792.00,0.0036
2791.00,0.0035
2790.00,0.0035
2789.00,0.0035
2788.00,0.0035
2787.00,0.0035
2786.00,0.0035
2785.00,0.0035
2784.00,0.0034
2783.00,0.0034
2782.00,0.0034
2781.00,0.0034
2780.00,0.0034
2779.00,0.0034
2778.00,0.0034
2777.00,0.0034
2776.00,0.0034
2775.00,0.0034
2774.00,0.0033
2773.00,0.0033
2772.00,0.0033
2771.00,0.0033
2770.00,0.0032
2769.00,0.0032
2768.00,0.0032
2767.00,0.0032
2766.00,0.0032
2765.00,0.0032
2764.00,0.0032
2763.00,0.0031
2762.00,0.0031
2761.00,0.0031
2760.00,0.0031
2759.00,0.0031
2758.00,0.0031
2757.00,0.0031
2756.00,0.0031
2755.00,0.0031
2754.00,0.0031
2753.00,0.0031
2752.00,0.0031
2751.00,0.0031
2750.00,0.0030
2749.00,0.0030
2748.00,0.0030
2747.00,0.0030
2746.00,0.0030
2745.00,0.0030
2744.00,0.0030
2743.00,0.0030
2742.00,0.0030
2741.00,0.0030
2740.00,0.0030
2739.00,0.0030
2738.00,0.0030
2737.00,0.0031
2736.00,0.0031
2735.00,0.0031
2734.00,0.0031
2733.00,0.0031
2732.00,0.0031
2731.00,0.0031
2730.00,0.0031
2729.00,0.0031
2728.00,0.0031
2727.00,0.0031
2726.00,0.0031
2725.00,0.0031
2724.00,0.0031
2723.00,0.0031
2722.00,0.0031
2721.00,0.0031
2720.00,0.0031
2719.00,0.0031
2718.00,0.0031
2717.00,0.0031
2716.00,0.0031
2715.00,0.0031
2714.00,0.0031
2713.00,0.0031
2712.00,0.0031
2711.00,0.0031
2710.00,0.0031
2709.00,0.0030
2708.00,0.0030
2707.00,0.0030
2706.00,0.0030
2705.00,0.0030
2704.00,0.0030
2703.00,0.0030
2702.00,0.0030
2701.00,0.0030
2700.00,0.0030
2699.00,0.0030
2698.00,0.0030
2697.00,0.0030
2696.00,0.0030
2695.00,0.0030
2694.00,0.0030
2693.00,0.0030
2692.00,0.0030
2691.00,0.0030
2690.00,0.0030
2689.00,0.0030
2688.00,0.0030
2687.00,0.0030
2686.00,0.0030
2685.00,0.0030
2684.00,0.0030
2683.00,0.0030
2682.00,0.0030
2681.00,0.0030
2680.00,0.0030
2679.00,0.0030
2678.00,0.0030
2677.00,0.0030
2676.00,0.0030
2675.00,0.0030
2674.00,0.0030
2673.00,0.0030
2672.00,0.0030
2671.00,0.0030
2670.00,0.0030
2669.00,0.0031
2668.00,0.0031
2667.00,0.0031
2666.00,0.0032
2665.00,0.0032
2664.00,0.0032
2663.00,0.0033
2662.00,0.0033
2661.00,0.0033
2660.00,0.0034
2659.00,0.0034
2658.00,0.0034
2657.00,0.0035
2656.00,0.0035
2655.00,0.0035
2654.00,0.0035
2653.00,0.0035
2652.00,0.0036
2651.00,0.0036
2650.00,0.0036
2649.00,0.0036
2648.00,0.0036
2647.00,0.0035
2646.00,0.0035
2645.00,0.0035
2644.00,0.0035
2643.00,0.0035
2642.00,0.0035
2641.00,0.0035
2640.00,0.0036
2639.00,0.0036
2638.00,0.0036
2637.00,0.0036
2636.00,0.0036
2635.00,0.0036
2634.00,0.0036
2633.00,0.0036
2632.00,0.0036
2631.00,0.0036
2630.00,0.0036
2629.00,0.0035
2628.00,0.0035
2627.00,0.0035
2626.00,0.0035
2625.00,0.0034
2624.00,0.0034
2623.00,0.0034
2622.00,0.0033
2621.00,0.0033
2620.00,0.0033
2619.00,0.0032
2618.00,0.0032
2617.00,0.0032
2616.00,0.0032
2615.00,0.0032
2614.00,0.0032
2613.00,0.0032
2612.00,0.0032
2611.00,0.0032
2610.00,0.0032
2609.00,0.0032
2608.00,0.0033
2607.00,0.0033
2606.00,0.0033
2605.00,0.0033
2604.00,0.0033
2603.00,0.0033
2602.00,0.0033
2601.00,0.0032
2600.00,0.0032
2599.00,0.0032
2598.00,0.0032
2597.00,0.0031
2596.00,0.0031
2595.00,0.0031
2594.00,0.0030
2593.00,0.0030
2592.00,0.0030
2591.00,0.0029
2590.00,0.0029
2589.00,0.0029
2588.00,0.0029
2587.00,0.0029
2586.00,0.0029
2585.00,0.0030
2584.00,0.0030
2583.00,0.0030
2582.00,0.0030
2581.00,0.0030
2580.00,0.0030
2579.00,0.0030
2578.00,0.0029
2577.00,0.0029
2576.00,0.0028
2575.00,0.0028
2574.00,0.0028
2573.00,0.0028
2572.00,0.0028
2571.00,0.0028
2570.00,0.0028
2569.00,0.0028
2568.00,0.0028
2567.00,0.0028
2566.00,0.0027
2565.00,0.0027
2564.00,0.0027
2563.00,0.0027
2562.00,0.0027
2561.00,0.0027
2560.00,0.0027
2559.00,0.0027
2558.00,0.0027
2557.00,0.0027
2556.00,0.0027
2555.00,0.0027
2554.00,0.0027
2553.00,0.0027
2552.00,0.0026
2551.00,0.0026
2550.00,0.0026
2549.00,0.0026
2548.00,0.0026
2547.00,0.0026
2546.00,0.0026
2545.00,0.0026
2544.00,0.0026
2543.00,0.0026
2542.00,0.0026
2541.00,0.0025
2540.00,0.0025
2539.00,0.0025
2538.00,0.0025
2537.00,0.0025
2536.00,0.0025
2535.00,0.0025
2534.00,0.0025
2533.00,0.0025
2532.00,0.0025
2531.00,0.0025
2530.00,0.0025
2529.00,0.0026
2528.00,0.0026
2527.00,0.0026
2526.00,0.0026
2525.00,0.0026
2524.00,0.0026
2523.00,0.0025
2522.00,0.0025
2521.00,0.0025
2520.00,0.0025
2519.00,0.0025
2518.00,0.0025
2517.00,0.0025
2516.00,0.0025
2515.00,0.0025
2514.00,0.0025
2513.00,0.0025
2512.00,0.0025
2511.00,0.0025
2510.00,0.0025
2509.00,0.0025
2508.00,0.0024
2507.00,0.0025
2506.00,0.0025
2505.00,0.0025
2504.00,0.0024
2503.00,0.0024
2502.00,0.0024
2501.00,0.0024
2500.00,0.0024
2499.00,0.0024
2498.00,0.0024
2497.00,0.0024
2496.00,0.0025
2495.00,0.0025
2494.00,0.0025
2493.00,0.0025
2492.00,0.0025
2491.00,0.0024
2490.00,0.0024
2489.00,0.0024
2488.00,0.0024
2487.00,0.0024
2486.00,0.0024
2485.00,0.0024
2484.00,0.0024
2483.00,0.0024
2482.00,0.0024
2481.00,0.0024
2480.00,0.0024
2479.00,0.0024
2478.00,0.0023
2477.00,0.0023
2476.00,0.0023
2475.00,0.0023
2474.00,0.0023
2473.00,0.0023
2472.00,0.0023
2471.00,0.0023
2470.00,0.0023
2469.00,0.0023
2468.00,0.0023
2467.00,0.0023
2466.00,0.0023
2465.00,0.0023
2464.00,0.0023
2463.00,0.0024
2462.00,0.0024
2461.00,0.0024
2460.00,0.0024
2459.00,0.0024
2458.00,0.0024
2457.00,0.0024
2456.00,0.0025
2455.00,0.0025
2454.00,0.0024
2453.00,0.0024
2452.00,0.0024
2451.00,0.0023
2450.00,0.0023
2449.00,0.0023
2448.00,0.0023
2447.00,0.0023
2446.00,0.0023
2445.00,0.0023
2444.00,0.0022
2443.00,0.0022
2442.00,0.0022
2441.00,0.0021
2440.00,0.0021
2439.00,0.0021
2438.00,0.0021
2437.00,0.0021
2436.00,0.0021
2435.00,0.0021
2434.00,0.0021
2433.00,0.0021
2432.00,0.0021
2431.00,0.0021
2430.00,0.0020
2429.00,0.0020
2428.00,0.0020
2427.00,0.0020
2426.00,0.0020
2425.00,0.0020
2424.00,0.0021
2423.00,0.0021
2422.00,0.0021
2421.00,0.0020
2420.00,0.0020
2419.00,0.0020
2418.00,0.0020
2417.00,0.0020
2416.00,0.0020
2415.00,0.0020
2414.00,0.0020
2413.00,0.0020
2412.00,0.0021
2411.00,0.0021
2410.00,0.0020
2409.00,0.0020
2408.00,0.0019
2407.00,0.0019
2406.00,0.0018
2405.00,0.0018
2404.00,0.0018
2403.00,0.0018
2402.00,0.0018
2401.00,0.0018
2400.00,0.0018
2399.00,0.0018
2398.00,0.0018
2397.00,0.0018
2396.00,0.0018
2395.00,0.0018
2394.00,0.0018
2393.00,0.0019
2392.00,0.0019
2391.00,0.0019
2390.00,0.0019
2389.00,0.0018
2388.00,0.0018
2387.00,0.0018
2386.00,0.0018
2385.00,0.0018
2384.00,0.0018
2383.00,0.0018
2382.00,0.0018
2381.00,0.0018
2380.00,0.0018
2379.00,0.0019
2378.00,0.0019
2377.00,0.0019
2376.00,0.0019
2375.00,0.0019
2374.00,0.0018
2373.00,0.0019
2372.00,0.0019
2371.00,0.0019
2370.00,0.0018
2369.00,0.0018
2368.00,0.0018
2367.00,0.0018
2366.00,0.0018
2365.00,0.0019
2364.00,0.0020
2363.00,0.0021
2362.00,0.0021
2361.00,0.0021
2360.00,0.0021
2359.00,0.0022
2358.00,0.0022
2357.00,0.0022
2356.00,0.0022
2355.00,0.0022
2354.00,0.0022
2353.00,0.0022
2352.00,0.0022
2351.00,0.0023
2350.00,0.0024
2349.00,0.0024
2348.00,0.0025
2347.00,0.0026
2346.00,0.0026
2345.00,0.0026
2344.00,0.0026
2343.00,0.0026
2342.00,0.0026
2341.00,0.0027
2340.00,0.0027
2339.00,0.0028
2338.00,0.0028
2337.00,0.0029
2336.00,0.0029
2335.00,0.0029
2334.00,0.0029
2333.00,0.0028
2332.00,0.0027
2331.00,0.0026
2330.00,0.0026
2329.00,0.0028
2328.00,0.0030
2327.00,0.0034
2326.00,0.0037
2325.00,0.0039
2324.00,0.0038
2323.00,0.0037
2322.00,0.0035
2321.00,0.0034
2320.00,0.0033
2319.00,0.0032
2318.00,0.0032
2317.00,0.0032
2316.00,0.0032
2315.00,0.0032
2314.00,0.0032
2313.00,0.0032
2312.00,0.0032
2311.00,0.0031
2310.00,0.0031
2309.00,0.0030
2308.00,0.0030
2307.00,0.0030
2306.00,0.0029
2305.00,0.0029
2304.00,0.0029
2303.00,0.0028
2302.00,0.0028
2301.00,0.0028
2300.00,0.0029
2299.00,0.0029
2298.00,0.0029
2297.00,0.0029
2296.00,0.0029
2295.00,0.0030
2294.00,0.0030
2293.00,0.0031
2292.00,0.0031
2291.00,0.0032
2290.00,0.0032
2289.00,0.0033
2288.00,0.0033
2287.00,0.0034
2286.00,0.0033
2285.00,0.0033
2284.00,0.0032
2283.00,0.0031
2282.00,0.0030
2281.00,0.0030
2280.00,0.0029
2279.00,0.0028
2278.00,0.0028
2277.00,0.0028
2276.00,0.0028
2275.00,0.0028
2274.00,0.0028
2273.00,0.0028
2272.00,0.0028
2271.00,0.0027
2270.00,0.0027
2269.00,0.0027
2268.00,0.0027
2267.00,0.0026
2266.00,0.0025
2265.00,0.0025
2264.00,0.0025
2263.00,0.0025
2262.00,0.0026
2261.00,0.0026
2260.00,0.0026
2259.00,0.0026
2258.00,0.0025
2257.00,0.0024
2256.00,0.0023
2255.00,0.0023
2254.00,0.0022
2253.00,0.0022
2252.00,0.0022
2251.00,0.0021
2250.00,0.0021
2249.00,0.0021
2248.00,0.0022
2247.00,0.0022
2246.00,0.0022
2245.00,0.0022
2244.00,0.0022
2243.00,0.0022
2242.00,0.0022
2241.00,0.0022
2240.00,0.0022
2239.00,0.0022
2238.00,0.0022
2237.00,0.0022
2236.00,0.0022
2235.00,0.0023
2234.00,0.0023
2233.00,0.0023
2232.00,0.0022
2231.00,0.0022
2230.00,0.0021
2229.00,0.0020
2228.00,0.0020
2227.00,0.0019
2226.00,0.0019
2225.00,0.0019
2224.00,0.0020
2223.00,0.0020
2222.00,0.0020
2221.00,0.0021
2220.00,0.0021
2219.00,0.0022
2218.00,0.0022
2217.00,0.0022
2216.00,0.0021
2215.00,0.0021
2214.00,0.0020
2213.00,0.0020
2212.00,0.0020
2211.00,0.0020
2210.00,0.0020
2209.00,0.0020
2208.00,0.0019
2207.00,0.0019
2206.00,0.0019
2205.00,0.0020
2204.00,0.0020
2203.00,0.0021
2202.00,0.0021
2201.00,0.0021
2200.00,0.0021
2199.00,0.0021
2198.00,0.0021
2197.00,0.0021
2196.00,0.0020
2195.00,0.0020
2194.00,0.0020
2193.00,0.0021
2192.00,0.0021
2191.00,0.0023
2190.00,0.0023
2189.00,0.0023
2188.00,0.0023
2187.00,0.0023
2186.00,0.0022
2185.00,0.0021
2184.00,0.0019
2183.00,0.0017
2182.00,0.0016
2181.00,0.0016
2180.00,0.0016
2179.00,0.0017
2178.00,0.0017
2177.00,0.0016
2176.00,0.0015
2175.00,0.0016
2174.00,0.0017
2173.00,0.0018
2172.00,0.0020
2171.00,0.0022
2170.00,0.0024
2169.00,0.0026
2168.00,0.0026
2167.00,0.0027
2166.00,0.0027
2165.00,0.0027
2164.00,0.0028
2163.00,0.0027
2162.00,0.0023
2161.00,0.0012
2160.00,-0.0001
2159.00,-0.0012
2158.00,-0.0017
2157.00,-0.0016
2156.00,-0.0012
2155.00,-0.0008
2154.00,-0.0005
2153.00,-0.0003
2152.00,-0.0002
2151.00,-0.0001
2150.00,-0.0000
2149.00,0.0000
2148.00,-0.0000
2147.00,-0.0001
2146.00,-0.0001
2145.00,-0.0001
2144.00,-0.0001
2143.00,-0.0001
2142.00,-0.0000
2141.00,0.0000
2140.00,0.0001
2139.00,0.0000
2138.00,-0.0001
2137.00,-0.0003
2136.00,-0.0005
2135.00,-0.0007
2134.00,-0.0007
2133.00,-0.0005
2132.00,-0.0003
2131.00,-0.0001
2130.00,-0.0000
2129.00,0.0001
2128.00,0.0002
2127.00,0.0003
2126.00,0.0005
2125.00,0.0006
2124.00,0.0007
2123.00,0.0008
2122.00,0.0009
2121.00,0.0010
2120.00,0.0012
2119.00,0.0014
2118.00,0.0015
2117.00,0.0016
2116.00,0.0017
2115.00,0.0017
2114.00,0.0017
2113.00,0.0017
2112.00,0.0017
2111.00,0.0017
2110.00,0.0017
2109.00,0.0016
2108.00,0.0016
2107.00,0.0015
2106.00,0.0015
2105.00,0.0015
2104.00,0.0015
2103.00,0.0016
2102.00,0.0016
2101.00,0.0016
2100.00,0.0016
2099.00,0.0015
2098.00,0.0014
2097.00,0.0012
2096.00,0.0010
2095.00,0.0009
2094.00,0.0010
2093.00,0.0011
2092.00,0.0013
2091.00,0.0014
2090.00,0.0015
2089.00,0.0016
2088.00,0.0016
2087.00,0.0016
2086.00,0.0016
2085.00,0.0016
2084.00,0.0016
2083.00,0.0016
2082.00,0.0016
2081.00,0.0017
2080.00,0.0017
2079.00,0.0018
2078.00,0.0018
2077.00,0.0018
2076.00,0.0017
2075.00,0.0017
2074.00,0.0016
2073.00,0.0016
2072.00,0.0016
2071.00,0.0016
2070.00,0.0015
2069.00,0.0015
2068.00,0.0015
2067.00,0.0015
2066.00,0.0014
2065.00,0.0014
2064.00,0.0013
2063.00,0.0012
2062.00,0.0012
2061.00,0.0013
2060.00,0.0013
2059.00,0.0014
2058.00,0.0014
2057.00,0.0014
2056.00,0.0014
2055.00,0.0014
2054.00,0.0016
2053.00,0.0020
2052.00,0.0023
2051.00,0.0023
2050.00,0.0021
2049.00,0.0018
2048.00,0.0016
2047.00,0.0014
2046.00,0.0013
2045.00,0.0013
2044.00,0.0013
2043.00,0.0013
2042.00,0.0013
2041.00,0.0013
2040.00,0.0013
2039.00,0.0015
2038.00,0.0017
2037.00,0.0020
2036.00,0.0020
2035.00,0.0019
2034.00,0.0015
2033.00,0.0012
2032.00,0.0010
2031.00,0.0010
2030.00,0.0010
2029.00,0.0011
2028.00,0.0010
2027.00,0.0009
2026.00,0.0006
2025.00,0.0004
2024.00,0.0003
2023.00,0.0002
2022.00,0.0001
2021.00,0.0002
2020.00,0.0002
2019.00,0.0003
2018.00,0.0003
2017.00,0.0003
2016.00,0.0003
2015.00,0.0004
2014.00,0.0006
2013.00,0.0007
2012.00,0.0009
2011.00,0.0011
2010.00,0.0011
2009.00,0.0010
2008.00,0.0007
2007.00,0.0005
2006.00,0.0004
2005.00,0.0003
2004.00,0.0003
2003.00,0.0004
2002.00,0.0004
2001.00,0.0006
2000.00,0.0009
1999.00,0.0012
1998.00,0.0014
1997.00,0.0015
1996.00,0.0015
1995.00,0.0015
1994.00,0.0014
1993.00,0.0014
1992.00,0.0015
1991.00,0.0016
1990.00,0.0017
1989.00,0.0019
1988.00,0.0020
1987.00,0.0022
1986.00,0.0024
1985.00,0.0025
1984.00,0.0027
1983.00,0.0030
1982.00,0.0032
1981.00,0.0032
1980.00,0.0028
1979.00,0.0022
1978.00,0.0015
1977.00,0.0011
1976.00,0.0009
1975.00,0.0009
1974.00,0.0009
1973.00,0.0010
1972.00,0.0011
1971.00,0.0012
1970.00,0.0013
1969.00,0.0014
1968.00,0.0015
1967.00,0.0017
1966.00,0.0018
1965.00,0.0020
1964.00,0.0020
1963.00,0.0021
1962.00,0.0021
1961.00,0.0021
1960.00,0.0021
1959.00,0.0023
1958.00,0.0024
1957.00,0.0027
1956.00,0.0029
1955.00,0.0031
1954.00,0.0032
1953.00,0.0034
1952.00,0.0035
1951.00,0.0037
1950.00,0.0038
1949.00,0.0040
1948.00,0.0041
1947.00,0.0043
1946.00,0.0044
1945.00,0.0046
1944.00,0.0047
1943.00,0.0047
1942.00,0.0046
1941.00,0.0046
1940.00,0.0045
1939.00,0.0044
1938.00,0.0043
1937.00,0.0041
1936.00,0.0038
1935.00,0.0035
1934.00,0.0032
1933.00,0.0029
1932.00,0.0026
1931.00,0.0025
1930.00,0.0023
1929.00,0.0022
1928.00,0.0022
1927.00,0.0021
1926.00,0.0020
1925.00,0.0019
1924.00,0.0018
1923.00,0.0018
1922.00,0.0017
1921.00,0.0017
1920.00,0.0017
1919.00,0.0017
1918.00,0.0016
1917.00,0.0015
1916.00,0.0015
1915.00,0.0015
1914.00,0.0015
1913.00,0.0016
1912.00,0.0016
1911.00,0.0016
1910.00,0.0017
1909.00,0.0017
1908.00,0.0017
1907.00,0.0017
1906.00,0.0017
1905.00,0.0017
1904.00,0.0017
1903.00,0.0017
1902.00,0.0018
1901.00,0.0018
1900.00,0.0019
1899.00,0.0020
1898.00,0.0022
1897.00,0.0023
1896.00,0.0024
1895.00,0.0025
1894.00,0.0026
1893.00,0.0027
1892.00,0.0028
1891.00,0.0029
1890.00,0.0030
1889.00,0.0031
1888.00,0.0032
1887.00,0.0033
1886.00,0.0034
1885.00,0.0035
1884.00,0.0036
1883.00,0.0037
1882.00,0.0038
1881.00,0.0039
1880.00,0.0039
1879.00,0.0040
1878.00,0.0041
1877.00,0.0042
1876.00,0.0043
1875.00,0.0044
1874.00,0.0045
1873.00,0.0046
1872.00,0.0046
1871.00,0.0047
1870.00,0.0047
1869.00,0.0046
1868.00,0.0045
1867.00,0.0044
1866.00,0.0044
1865.00,0.0043
1864.00,0.0042
1863.00,0.0040
1862.00,0.0038
1861.00,0.0036
1860.00,0.0034
1859.00,0.0031
1858.00,0.0029
1857.00,0.0027
1856.00,0.0025
1855.00,0.0024
1854.00,0.0022
1853.00,0.0022
1852.00,0.0021
1851.00,0.0021
1850.00,0.0021
1849.00,0.0020
1848.00,0.0020
1847.00,0.0020
1846.00,0.0019
1845.00,0.0019
1844.00,0.0019
1843.00,0.0019
1842.00,0.0018
1841.00,0.0017
1840.00,0.0017
1839.00,0.0017
1838.00,0.0017
1837.00,0.0018
1836.00,0.0018
1835.00,0.0019
1834.00,0.0019
1833.00,0.0020
1832.00,0.0021
1831.00,0.0021
1830.00,0.0022
1829.00,0.0023
1828.00,0.0024
1827.00,0.0025
1826.00,0.0026
1825.00,0.0027
1824.00,0.0028
1823.00,0.0029
1822.00,0.0030
1821.00,0.0031
1820.00,0.0031
1819.00,0.0031
1818.00,0.0032
1817.00,0.0032
1816.00,0.0034
1815.00,0.0036
1814.00,0.0039
1813.00,0.0040
1812.00,0.0042
1811.00,0.0043
1810.00,0.0044
1809.00,0.0046
1808.00,0.0048
1807.00,0.0049
1806.00,0.0051
1805.00,0.0052
1804.00,0.0053
1803.00,0.0053
1802.00,0.0053
1801.00,0.0052
1800.00,0.0052
1799.00,0.0051
1798.00,0.0050
1797.00,0.0048
1796.00,0.0046
1795.00,0.0044
1794.00,0.0043
1793.00,0.0041
1792.00,0.0039
1791.00,0.0036
1790.00,0.0034
1789.00,0.0033
1788.00,0.0032
1787.00,0.0031
1786.00,0.0030
1785.00,0.0030
1784.00,0.0029
1783.00,0.0029
1782.00,0.0029
1781.00,0.0029
1780.00,0.0029
1779.00,0.0029
1778.00,0.0029
1777.00,0.0029
1776.00,0.0029
1775.00,0.0029
1774.00,0.0029
1773.00,0.0029
1772.00,0.0029
1771.00,0.0029
1770.00,0.0030
1769.00,0.0030
1768.00,0.0030
1767.00,0.0031
1766.00,0.0031
1765.00,0.0031
1764.00,0.0032
1763.00,0.0033
1762.00,0.0035
1761.00,0.0036
1760.00,0.0037
1759.00,0.0039
1758.00,0.0040
1757.00,0.0042
1756.00,0.0044
1755.00,0.0046
1754.00,0.0048
1753.00,0.0050
1752.00,0.0052
1751.00,0.0054
1750.00,0.0055
1749.00,0.0056
1748.00,0.0057
1747.00,0.0059
1746.00,0.0060
1745.00,0.0061
1744.00,0.0062
1743.00,0.0062
1742.00,0.0062
1741.00,0.0062
1740.00,0.0062
1739.00,0.0062
1738.00,0.0062
1737.00,0.0061
1736.00,0.0061
1735.00,0.0060
1734.00,0.0059
1733.00,0.0057
1732.00,0.0056
1731.00,0.0054
1730.00,0.0053
1729.00,0.0052
1728.00,0.0051
1727.00,0.0050
1726.00,0.0049
1725.00,0.0049
1724.00,0.0048
1723.00,0.0046
1722.00,0.0045
1721.00,0.0044
1720.00,0.0044
1719.00,0.0043
1718.00,0.0043
1717.00,0.0041
1716.00,0.0040
1715.00,0.0040
1714.00,0.0039
1713.00,0.0039
1712.00,0.0039
1711.00,0.0039
1710.00,0.0038
1709.00,0.0038
1708.00,0.0038
1707.00,0.0037
1706.00,0.0037
1705.00,0.0037
1704.00,0.0036
1703.00,0.0036
1702.00,0.0036
1701.00,0.0036
1700.00,0.0037
1699.00,0.0036
1698.00,0.0036
1697.00,0.0036
1696.00,0.0036
1695.00,0.0036
1694.00,0.0036
1693.00,0.0036
1692.00,0.0036
1691.00,0.0037
1690.00,0.0038
1689.00,0.0038
1688.00,0.0038
1687.00,0.0039
1686.00,0.0040
1685.00,0.0040
1684.00,0.0041
1683.00,0.0040
1682.00,0.0040
1681.00,0.0041
1680.00,0.0042
1679.00,0.0043
1678.00,0.0043
1677.00,0.0044
1676.00,0.0044
1675.00,0.0044
1674.00,0.0044
1673.00,0.0044
1672.00,0.0044
1671.00,0.0044
1670.00,0.0044
1669.00,0.0045
1668.00,0.0045
1667.00,0.0045
1666.00,0.0045
1665.00,0.0045
1664.00,0.0045
1663.00,0.0045
1662.00,0.0044
1661.00,0.0043
1660.00,0.0043
1659.00,0.0042
1658.00,0.0042
1657.00,0.0041
1656.00,0.0041
1655.00,0.0041
1654.00,0.0041
1653.00,0.0040
1652.00,0.0038
1651.00,0.0037
1650.00,0.0036
1649.00,0.0036
1648.00,0.0036
1647.00,0.0036
1646.00,0.0036
1645.00,0.0036
1644.00,0.0036
1643.00,0.0035
1642.00,0.0035
1641.00,0.0035
1640.00,0.0035
1639.00,0.0035
1638.00,0.0035
1637.00,0.0035
1636.00,0.0035
1635.00,0.0035
1634.00,0.0035
1633.00,0.0036
1632.00,0.0036
1631.00,0.0037
1630.00,0.0037
1629.00,0.0038
1628.00,0.0038
1627.00,0.0039
1626.00,0.0039
1625.00,0.0040
1624.00,0.0041
1623.00,0.0042
1622.00,0.0043
1621.00,0.0044
1620.00,0.0044
1619.00,0.0046
1618.00,0.0047
1617.00,0.0049
1616.00,0.0052
1615.00,0.0054
1614.00,0.0058
1613.00,0.0062
1612.00,0.0068
1611.00,0.0077
1610.00,0.0088
1609.00,0.0104
1608.00,0.0126
1607.00,0.0152
1606.00,0.0183
1605.00,0.0218
1604.00,0.0253
1603.00,0.0284
1602.00,0.0304
1601.00,0.0310
1600.00,0.0301
1599.00,0.0279
1598.00,0.0249
1597.00,0.0216
1596.00,0.0187
1595.00,0.0162
1594.00,0.0142
1593.00,0.0127
1592.00,0.0115
1591.00,0.0106
1590.00,0.0100
1589.00,0.0097
1588.00,0.0098
1587.00,0.0104
1586.00,0.0114
1585.00,0.0124
1584.00,0.0133
1583.00,0.0135
1582.00,0.0129
1581.00,0.0117
1580.00,0.0103
1579.00,0.0090
1578.00,0.0080
1577.00,0.0071
1576.00,0.0063
1575.00,0.0058
1574.00,0.0054
1573.00,0.0051
1572.00,0.0049
1571.00,0.0047
1570.00,0.0045
1569.00,0.0044
1568.00,0.0042
1567.00,0.0041
1566.00,0.0041
1565.00,0.0040
1564.00,0.0040
1563.00,0.0040
1562.00,0.0040
1561.00,0.0040
1560.00,0.0040
1559.00,0.0040
1558.00,0.0040
1557.00,0.0040
1556.00,0.0041
1555.00,0.0043
1554.00,0.0044
1553.00,0.0045
1552.00,0.0047
1551.00,0.0048
1550.00,0.0050
1549.00,0.0051
1548.00,0.0052
1547.00,0.0053
1546.00,0.0054
1545.00,0.0055
1544.00,0.0055
1543.00,0.0055
1542.00,0.0054
1541.00,0.0054
1540.00,0.0053
1539.00,0.0053
1538.00,0.0052
1537.00,0.0051
1536.00,0.0051
1535.00,0.0050
1534.00,0.0049
1533.00,0.0047
1532.00,0.0046
1531.00,0.0045
1530.00,0.0044
1529.00,0.0043
1528.00,0.0042
1527.00,0.0041
1526.00,0.0039
1525.00,0.0038
1524.00,0.0038
1523.00,0.0038
1522.00,0.0038
1521.00,0.0037
1520.00,0.0037
1519.00,0.0038
1518.00,0.0038
1517.00,0.0039
1516.00,0.0040
1515.00,0.0040
1514.00,0.0041
1513.00,0.0043
1512.00,0.0044
1511.00,0.0045
1510.00,0.0047
1509.00,0.0048
1508.00,0.0050
1507.00,0.0053
1506.00,0.0058
1505.00,0.0063
1504.00,0.0070
1503.00,0.0078
1502.00,0.0090
1501.00,0.0106
1500.00,0.0131
1499.00,0.0170
1498.00,0.0233
1497.00,0.0330
1496.00,0.0458
1495.00,0.0590
1494.00,0.0696
1493.00,0.0756
1492.00,0.0755
1491.00,0.0688
1490.00,0.0574
1489.00,0.0454
1488.00,0.0358
1487.00,0.0288
1486.00,0.0238
1485.00,0.0200
1484.00,0.0171
1483.00,0.0147
1482.00,0.0128
1481.00,0.0114
1480.00,0.0104
1479.00,0.0096
1478.00,0.0090
1477.00,0.0086
1476.00,0.0084
1475.00,0.0081
1474.00,0.0079
1473.00,0.0078
1472.00,0.0077
1471.00,0.0077
1470.00,0.0078
1469.00,0.0079
1468.00,0.0081
1467.00,0.0083
1466.00,0.0086
1465.00,0.0089
1464.00,0.0094
1463.00,0.0101
1462.00,0.0109
1461.00,0.0120
1460.00,0.0136
1459.00,0.0164
1458.00,0.0218
1457.00,0.0315
1456.00,0.0439
1455.00,0.0559
1454.00,0.0660
1453.00,0.0737
1452.00,0.0774
1451.00,0.0766
1450.00,0.0724
1449.00,0.0665
1448.00,0.0603
1447.00,0.0548
1446.00,0.0503
1445.00,0.0464
1444.00,0.0427
1443.00,0.0391
1442.00,0.0358
1441.00,0.0329
1440.00,0.0303
1439.00,0.0281
1438.00,0.0258
1437.00,0.0233
1436.00,0.0207
1435.00,0.0184
1434.00,0.0167
1433.00,0.0152
1432.00,0.0139
1431.00,0.0126
1430.00,0.0115
1429.00,0.0106
1428.00,0.0099
1427.00,0.0093
1426.00,0.0089
1425.00,0.0085
1424.00,0.0082
1423.00,0.0079
1422.00,0.0077
1421.00,0.0076
1420.00,0.0075
1419.00,0.0073
1418.00,0.0071
1417.00,0.0070
1416.00,0.0069
1415.00,0.0068
1414.00,0.0067
1413.00,0.0066
1412.00,0.0066
1411.00,0.0066
1410.00,0.0065
1409.00,0.0065
1408.00,0.0065
1407.00,0.0064
1406.00,0.0064
1405.00,0.0064
1404.00,0.0064
1403.00,0.0064
1402.00,0.0064
1401.00,0.0064
1400.00,0.0065
1399.00,0.0065
1398.00,0.0066
1397.00,0.0067
1396.00,0.0069
1395.00,0.0071
1394.00,0.0074
1393.00,0.0077
1392.00,0.0081
1391.00,0.0085
1390.00,0.0090
1389.00,0.0095
1388.00,0.0101
1387.00,0.0107
1386.00,0.0112
1385.00,0.0117
1384.00,0.0122
1383.00,0.0127
1382.00,0.0132
1381.00,0.0137
1380.00,0.0142
1379.00,0.0147
1378.00,0.0151
1377.00,0.0156
1376.00,0.0160
1375.00,0.0164
1374.00,0.0167
1373.00,0.0168
1372.00,0.0169
1371.00,0.0169
1370.00,0.0168
1369.00,0.0167
1368.00,0.0165
1367.00,0.0164
1366.00,0.0163
1365.00,0.0162
1364.00,0.0161
1363.00,0.0159
1362.00,0.0157
1361.00,0.0155
1360.00,0.0152
1359.00,0.0150
1358.00,0.0148
1357.00,0.0146
1356.00,0.0144
1355.00,0.0143
1354.00,0.0142
1353.00,0.0142
1352.00,0.0141
1351.00,0.0141
1350.00,0.0141
1349.00,0.0140
1348.00,0.0139
1347.00,0.0138
1346.00,0.0136
1345.00,0.0134
1344.00,0.0131
1343.00,0.0129
1342.00,0.0127
1341.00,0.0125
1340.00,0.0123
1339.00,0.0122
1338.00,0.0121
1337.00,0.0122
1336.00,0.0123
1335.00,0.0125
1334.00,0.0128
1333.00,0.0131
1332.00,0.0135
1331.00,0.0138
1330.00,0.0141
1329.00,0.0143
1328.00,0.0143
1327.00,0.0142
1326.00,0.0140
1325.00,0.0138
1324.00,0.0136
1323.00,0.0134
1322.00,0.0133
1321.00,0.0132
1320.00,0.0131
1319.00,0.0131
1318.00,0.0132
1317.00,0.0133
1316.00,0.0135
1315.00,0.0136
1314.00,0.0138
1313.00,0.0139
1312.00,0.0139
1311.00,0.0138
1310.00,0.0137
1309.00,0.0136
1308.00,0.0134
1307.00,0.0132
1306.00,0.0130
1305.00,0.0127
1304.00,0.0125
1303.00,0.0122
1302.00,0.0119
1301.00,0.0117
1300.00,0.0115
1299.00,0.0113
1298.00,0.0112
1297.00,0.0111
1296.00,0.0110
1295.00,0.0109
1294.00,0.0108
1293.00,0.0107
1292.00,0.0107
1291.00,0.0106
1290.00,0.0105
1289.00,0.0104
1288.00,0.0102
1287.00,0.0101
1286.00,0.0101
1285.00,0.0100
1284.00,0.0100
1283.00,0.0100
1282.00,0.0100
1281.00,0.0099
1280.00,0.0099
1279.00,0.0098
1278.00,0.0096
1277.00,0.0094
1276.00,0.0092
1275.00,0.0090
1274.00,0.0088
1273.00,0.0086
1272.00,0.0084
1271.00,0.0082
1270.00,0.0080
1269.00,0.0079
1268.00,0.0078
1267.00,0.0078
1266.00,0.0077
1265.00,0.0077
1264.00,0.0076
1263.00,0.0076
1262.00,0.0075
1261.00,0.0075
1260.00,0.0074
1259.00,0.0074
1258.00,0.0074
1257.00,0.0074
1256.00,0.0074
1255.00,0.0075
1254.00,0.0075
1253.00,0.0076
1252.00,0.0076
1251.00,0.0076
1250.00,0.0077
1249.00,0.0078
1248.00,0.0078
1247.00,0.0079
1246.00,0.0079
1245.00,0.0079
1244.00,0.0080
1243.00,0.0080
1242.00,0.0080
1241.00,0.0079
1240.00,0.0079
1239.00,0.0079
1238.00,0.0078
1237.00,0.0078
1236.00,0.0078
1235.00,0.0077
1234.00,0.0077
1233.00,0.0077
1232.00,0.0076
1231.00,0.0076
1230.00,0.0077
1229.00,0.0077
1228.00,0.0077
1227.00,0.0077
1226.00,0.0077
1225.00,0.0077
1224.00,0.0077
1223.00,0.0077
1222.00,0.0077
1221.00,0.0077
1220.00,0.0077
1219.00,0.0077
1218.00,0.0077
1217.00,0.0078
1216.00,0.0078
1215.00,0.0079
1214.00,0.0080
1213.00,0.0081
1212.00,0.0082
1211.00,0.0083
1210.00,0.0085
1209.00,0.0087
1208.00,0.0089
1207.00,0.0091
1206.00,0.0093
1205.00,0.0095
1204.00,0.0098
1203.00,0.0101
1202.00,0.0104
1201.00,0.0107
1200.00,0.0110
1199.00,0.0112
1198.00,0.0114
1197.00,0.0115
1196.00,0.0116
1195.00,0.0117
1194.00,0.0118
1193.00,0.0118
1192.00,0.0118
1191.00,0.0119
1190.00,0.0120
1189.00,0.0122
1188.00,0.0125
1187.00,0.0129
1186.00,0.0135
1185.00,0.0142
1184.00,0.0149
1183.00,0.0157
1182.00,0.0161
1181.00,0.0162
1180.00,0.0159
1179.00,0.0151
1178.00,0.0140
1177.00,0.0129
1176.00,0.0119
1175.00,0.0111
1174.00,0.0105
1173.00,0.0100
1172.00,0.0097
1171.00,0.0095
1170.00,0.0093
1169.00,0.0092
1168.00,0.0092
1167.00,0.0091
1166.00,0.0092
1165.00,0.0093
1164.00,0.0094
1163.00,0.0097
1162.00,0.0101
1161.00,0.0107
1160.00,0.0115
1159.00,0.0126
1158.00,0.0137
1157.00,0.0149
1156.00,0.0158
1155.00,0.0163
1154.00,0.0163
1153.00,0.0157
1152.00,0.0146
1151.00,0.0133
1150.00,0.0119
1149.00,0.0108
1148.00,0.0099
1147.00,0.0092
1146.00,0.0086
1145.00,0.0082
1144.00,0.0078
1143.00,0.0075
1142.00,0.0073
1141.00,0.0070
1140.00,0.0068
1139.00,0.0066
1138.00,0.0065
1137.00,0.0064
1136.00,0.0063
1135.00,0.0063
1134.00,0.0062
1133.00,0.0062
1132.00,0.0062
1131.00,0.0062
1130.00,0.0062
1129.00,0.0063
1128.00,0.0064
1127.00,0.0064
1126.00,0.0065
1125.00,0.0066
1124.00,0.0067
1123.00,0.0068
1122.00,0.0069
1121.00,0.0071
1120.00,0.0074
1119.00,0.0076
1118.00,0.0079
1117.00,0.0082
1116.00,0.0085
1115.00,0.0087
1114.00,0.0089
1113.00,0.0091
1112.00,0.0092
1111.00,0.0092
1110.00,0.0091
1109.00,0.0091
1108.00,0.0090
1107.00,0.0089
1106.00,0.0089
1105.00,0.0088
1104.00,0.0089
1103.00,0.0089
1102.00,0.0090
1101.00,0.0091
1100.00,0.0092
1099.00,0.0093
1098.00,0.0095
1097.00,0.0096
1096.00,0.0098
1095.00,0.0100
1094.00,0.0101
1093.00,0.0102
1092.00,0.0104
1091.00,0.0105
1090.00,0.0107
1089.00,0.0109
1088.00,0.0112
1087.00,0.0115
1086.00,0.0119
1085.00,0.0123
1084.00,0.0128
1083.00,0.0133
1082.00,0.0138
1081.00,0.0144
1080.00,0.0149
1079.00,0.0154
1078.00,0.0159
1077.00,0.0165
1076.00,0.0172
1075.00,0.0181
1074.00,0.0190
1073.00,0.0200
1072.00,0.0209
1071.00,0.0216
1070.00,0.0221
1069.00,0.0223
1068.00,0.0222
1067.00,0.0219
1066.00,0.0213
1065.00,0.0205
1064.00,0.0196
1063.00,0.0187
1062.00,0.0178
1061.00,0.0170
1060.00,0.0163
1059.00,0.0156
1058.00,0.0150
1057.00,0.0145
1056.00,0.0140
1055.00,0.0136
1054.00,0.0132
1053.00,0.0129
1052.00,0.0126
1051.00,0.0124
1050.00,0.0122
1049.00,0.0119
1048.00,0.0117
1047.00,0.0115
1046.00,0.0114
1045.00,0.0113
1044.00,0.0113
1043.00,0.0113
1042.00,0.0114
1041.00,0.0115
1040.00,0.0119
1039.00,0.0125
1038.00,0.0134
1037.00,0.0148
1036.00,0.0168
1035.00,0.0194
1034.00,0.0227
1033.00,0.0265
1032.00,0.0303
1031.00,0.0339
1030.00,0.0368
1029.00,0.0388
1028.00,0.0396
1027.00,0.0390
1026.00,0.0371
1025.00,0.0345
1024.00,0.0316
1023.00,0.0290
1022.00,0.0267
1021.00,0.0248
1020.00,0.0232
1019.00,0.0218
1018.00,0.0206
1017.00,0.0195
1016.00,0.0186
1015.00,0.0178
1014.00,0.0172
1013.00,0.0166
1012.00,0.0161
1011.00,0.0157
1010.00,0.0154
1009.00,0.0152
1008.00,0.0152
1007.00,0.0154
1006.00,0.0158
1005.00,0.0162
1004.00,0.0165
1003.00,0.0165
1002.00,0.0161
1001.00,0.0153
1000.00,0.0144
999.00,0.0135
998.00,0.0127
997.00,0.0122
996.00,0.0118
995.00,0.0116
994.00,0.0115
993.00,0.0115
992.00,0.0116
991.00,0.0117
990.00,0.0119
989.00,0.0121
988.00,0.0123
987.00,0.0126
986.00,0.0130
985.00,0.0134
984.00,0.0139
983.00,0.0143
982.00,0.0146
981.00,0.0148
980.00,0.0149
979.00,0.0148
978.00,0.0146
977.00,0.0144
976.00,0.0140
975.00,0.0137
974.00,0.0134
973.00,0.0133
972.00,0.0134
971.00,0.0137
970.00,0.0141
969.00,0.0147
968.00,0.0152
967.00,0.0157
966.00,0.0162
965.00,0.0164
964.00,0.0164
963.00,0.0162
962.00,0.0158
961.00,0.0152
960.00,0.0146
959.00,0.0139
958.00,0.0132
957.00,0.0126
956.00,0.0121
955.00,0.0117
954.00,0.0115
953.00,0.0114
952.00,0.0114
951.00,0.0115
950.00,0.0116
949.00,0.0117
948.00,0.0119
947.00,0.0121
946.00,0.0123
945.00,0.0126
944.00,0.0127
943.00,0.0128
942.00,0.0127
941.00,0.0125
940.00,0.0123
939.00,0.0119
938.00,0.0115
937.00,0.0111
936.00,0.0107
935.00,0.0103
934.00,0.0099
933.00,0.0096
932.00,0.0093
931.00,0.0091
930.00,0.0089
929.00,0.0088
928.00,0.0088
927.00,0.0088
926.00,0.0089
925.00,0.0091
924.00,0.0092
923.00,0.0094
922.00,0.0097
921.00,0.0100
920.00,0.0104
919.00,0.0109
918.00,0.0116
917.00,0.0124
916.00,0.0134
915.00,0.0146
914.00,0.0160
913.00,0.0177
912.00,0.0194
911.00,0.0212
910.00,0.0229
909.00,0.0244
908.00,0.0256
907.00,0.0263
906.00,0.0263
905.00,0.0258
904.00,0.0247
903.00,0.0232
902.00,0.0214
901.00,0.0194
900.00,0.0174
899.00,0.0156
898.00,0.0140
897.00,0.0127
896.00,0.0117
895.00,0.0108
894.00,0.0102
893.00,0.0097
892.00,0.0093
891.00,0.0089
890.00,0.0086
889.00,0.0083
888.00,0.0081
887.00,0.0079
886.00,0.0077
885.00,0.0075
884.00,0.0073
883.00,0.0072
882.00,0.0071
881.00,0.0070
880.00,0.0070
879.00,0.0069
878.00,0.0068
877.00,0.0067
876.00,0.0067
875.00,0.0066
874.00,0.0065
873.00,0.0065
872.00,0.0064
871.00,0.0063
870.00,0.0062
869.00,0.0062
868.00,0.0062
867.00,0.0062
866.00,0.0062
865.00,0.0062
864.00,0.0061
863.00,0.0062
862.00,0.0062
861.00,0.0063
860.00,0.0063
859.00,0.0064
858.00,0.0064
857.00,0.0064
856.00,0.0065
855.00,0.0066
854.00,0.0068
853.00,0.0071
852.00,0.0075
851.00,0.0081
850.00,0.0088
849.00,0.0095
848.00,0.0103
847.00,0.0111
846.00,0.0118
845.00,0.0125
844.00,0.0131
843.00,0.0135
842.00,0.0137
841.00,0.0137
840.00,0.0134
839.00,0.0129
838.00,0.0122
837.00,0.0114
836.00,0.0105
835.00,0.0096
834.00,0.0088
833.00,0.0080
832.00,0.0074
831.00,0.0070
830.00,0.0066
829.00,0.0064
828.00,0.0062
827.00,0.0061
826.00,0.0060
825.00,0.0059
824.00,0.0059
823.00,0.0058
822.00,0.0058
821.00,0.0058
820.00,0.0058
819.00,0.0058
818.00,0.0059
817.00,0.0060
816.00,0.0060
815.00,0.0061
814.00,0.0061
813.00,0.0062
812.00,0.0062
811.00,0.0062
810.00,0.0063
809.00,0.0064
808.00,0.0065
807.00,0.0066
806.00,0.0067
805.00,0.0067
804.00,0.0068
803.00,0.0069
802.00,0.0071
801.00,0.0073
800.00,0.0075
799.00,0.0077
798.00,0.0080
797.00,0.0084
796.00,0.0089
795.00,0.0094
794.00,0.0099
793.00,0.0105
792.00,0.0111
791.00,0.0118
790.00,0.0125
789.00,0.0133
788.00,0.0141
787.00,0.0150
786.00,0.0159
785.00,0.0168
784.00,0.0179
783.00,0.0191
782.00,0.0205
781.00,0.0221
780.00,0.0239
779.00,0.0259
778.00,0.0281
777.00,0.0307
776.00,0.0336
775.00,0.0367
774.00,0.0400
773.00,0.0437
772.00,0.0478
771.00,0.0522
770.00,0.0569
769.00,0.0616
768.00,0.0664
767.00,0.0710
766.00,0.0756
765.00,0.0800
764.00,0.0846
763.00,0.0893
762.00,0.0941
761.00,0.0989
760.00,0.1037
759.00,0.1080
758.00,0.1117
757.00,0.1146
756.00,0.1166
755.00,0.1175
754.00,0.1175
753.00,0.1170
752.00,0.1164
751.00,0.1158
750.00,0.1153
749.00,0.1148
748.00,0.1139
747.00,0.1119
746.00,0.1085
745.00,0.1033
744.00,0.0967
743.00,0.0891
742.00,0.0812
741.00,0.0735
740.00,0.0663
739.00,0.0598
738.00,0.0538
737.00,0.0483
736.00,0.0430
735.00,0.0379
734.00,0.0331
733.00,0.0287
732.00,0.0248
731.00,0.0217
730.00,0.0192
729.00,0.0173
728.00,0.0159
727.00,0.0149
726.00,0.0141
725.00,0.0137
724.00,0.0134
723.00,0.0132
722.00,0.0132
721.00,0.0132
720.00,0.0133
719.00,0.0135
718.00,0.0138
717.00,0.0145
716.00,0.0154
715.00,0.0168
714.00,0.0187
713.00,0.0213
712.00,0.0250
711.00,0.0302
710.00,0.0371
709.00,0.0462
708.00,0.0579
707.00,0.0724
706.00,0.0898
705.00,0.1102
704.00,0.1337
703.00,0.1603
702.00,0.1897
701.00,0.2218
700.00,0.2560
699.00,0.2913
698.00,0.3263
697.00,0.3574
696.00,0.3789
695.00,0.3841
694.00,0.3694
693.00,0.3369
692.00,0.2943
691.00,0.2503
690.00,0.2109
689.00,0.1784
688.00,0.1527
687.00,0.1328
686.00,0.1173
685.00,0.1050
684.00,0.0950
683.00,0.0867
682.00,0.0797
681.00,0.0739
680.00,0.0689
679.00,0.0646
678.00,0.0609
677.00,0.0577
676.00,0.0550
675.00,0.0526
674.00,0.0506
673.00,0.0488
672.00,0.0472
671.00,0.0458
670.00,0.0444
669.00,0.0427
668.00,0.0409
667.00,0.0391
666.00,0.0377
665.00,0.0364
664.00,0.0351
663.00,0.0337
662.00,0.0322
661.00,0.0308
660.00,0.0293
659.00,0.0280
658.00,0.0268
657.00,0.0256
656.00,0.0245
655.00,0.0235
654.00,0.0226
653.00,0.0218
652.00,0.0209
651.00,0.0202
650.00,0.0196
649.00,0.0191
648.00,0.0186
647.00,0.0182
646.00,0.0178
645.00,0.0175
644.00,0.0172
643.00,0.0169
642.00,0.0168
641.00,0.0168
640.00,0.0170
639.00,0.0172
638.00,0.0175
637.00,0.0179
636.00,0.0184
635.00,0.0188
634.00,0.0192
633.00,0.0197
632.00,0.0202
631.00,0.0207
630.00,0.0211
629.00,0.0215
628.00,0.0217
627.00,0.0219
626.00,0.0221
625.00,0.0223
624.00,0.0226
623.00,0.0231
622.00,0.0237
621.00,0.0240
620.00,0.0239
619.00,0.0235
618.00,0.0228
617.00,0.0221
616.00,0.0215
615.00,0.0210
614.00,0.0206
613.00,0.0201
612.00,0.0197
611.00,0.0195
610.00,0.0193
609.00,0.0191
608.00,0.0188
607.00,0.0185
606.00,0.0183
605.00,0.0182
604.00,0.0182
603.00,0.0183
602.00,0.0185
601.00,0.0187
600.00,0.0189
599.00,0.0191
598.00,0.0193
597.00,0.0195
596.00,0.0197
595.00,0.0200
594.00,0.0203
593.00,0.0207
592.00,0.0210
591.00,0.0213
590.00,0.0217
589.00,0.0220
588.00,0.0224
587.00,0.0226
586.00,0.0229
585.00,0.0232
584.00,0.0238
583.00,0.0245
582.00,0.0253
581.00,0.0263
580.00,0.0273
579.00,0.0284
578.00,0.0296
577.00,0.0309
576.00,0.0323
575.00,0.0339
574.00,0.0355
573.00,0.0371
572.00,0.0387
571.00,0.0402
570.00,0.0417
569.00,0.0431
568.00,0.0445
567.00,0.0459
566.00,0.0473
565.00,0.0488
564.00,0.0504
563.00,0.0520
562.00,0.0535
561.00,0.0550
560.00,0.0565
559.00,0.0581
558.00,0.0596
557.00,0.0611
556.00,0.0628
555.00,0.0646
554.00,0.0664
553.00,0.0683
552.00,0.0704
551.00,0.0726
550.00,0.0750
549.00,0.0776
548.00,0.0805
547.00,0.0837
546.00,0.0871
545.00,0.0909
544.00,0.0950
543.00,0.0989
542.00,0.1026
541.00,0.1059
540.00,0.1086
539.00,0.1103
538.00,0.1106
537.00,0.1096
536.00,0.1073
535.00,0.1039
534.00,0.0992
533.00,0.0938
532.00,0.0880
531.00,0.0821
530.00,0.0764
529.00,0.0712
528.00,0.0664
527.00,0.0619
526.00,0.0577
525.00,0.0539
524.00,0.0507
523.00,0.0480
522.00,0.0455
521.00,0.0433
520.00,0.0413
519.00,0.0396
518.00,0.0380
517.00,0.0365
516.00,0.0353
515.00,0.0341
514.00,0.0331
513.00,0.0322
512.00,0.0312
511.00,0.0302
510.00,0.0291
509.00,0.0281
508.00,0.0270
507.00,0.0260
506.00,0.0252
505.00,0.0244
504.00,0.0238
503.00,0.0232
502.00,0.0226
501.00,0.0220
500.00,0.0214
499.00,0.0209
498.00,0.0204
497.00,0.0200
496.00,0.0196
495.00,0.0193
494.00,0.0190
493.00,0.0187
492.00,0.0183
491.00,0.0178
490.00,0.0174
489.00,0.0170
488.00,0.0167
487.00,0.0165
486.00,0.0164
485.00,0.0162
484.00,0.0161
483.00,0.0159
482.00,0.0157
481.00,0.0155
480.00,0.0153
479.00,0.0150
478.00,0.0148
477.00,0.0147
476.00,0.0146
475.00,0.0146
474.00,0.0146
473.00,0.0146
472.00,0.0145
471.00,0.0143
470.00,0.0141
469.00,0.0140
468.00,0.0140
467.00,0.0140
466.00,0.0141
465.00,0.0142
464.00,0.0142
463.00,0.0142
462.00,0.0140
461.00,0.0137
460.00,0.0133
459.00,0.0130
458.00,0.0128
457.00,0.0127
456.00,0.0126
455.00,0.0125
454.00,0.0126
453.00,0.0127
452.00,0.0128
451.00,0.0129
450.00,0.0129
449.00,0.0130
448.00,0.0132
447.00,0.0131
446.00,0.0129
445.00,0.0127
444.00,0.0124
443.00,0.0123
442.00,0.0122
441.00,0.0121
440.00,0.0121
439.00,0.0121
438.00,0.0121
437.00,0.0120
436.00,0.0117
435.00,0.0113
434.00,0.0111
433.00,0.0109
432.00,0.0107
431.00,0.0105
430.00,0.0103
429.00,0.0102
428.00,0.0101
427.00,0.0100
426.00,0.0100
425.00,0.0104
424.00,0.0106
423.00,0.0104
422.00,0.0098
421.00,0.0090
420.00,0.0084
419.00,0.0082
418.00,0.0085
417.00,0.0091
416.00,0.0097
415.00,0.0101
414.00,0.0104
413.00,0.0107
412.00,0.0112
411.00,0.0118
410.00,0.0125
409.00,0.0131
408.00,0.0133
407.00,0.0132
406.00,0.0128
405.00,0.0122
404.00,0.0115
403.00,0.0109
402.00,0.0102
401.00,0.0096
400.00,0.0089
