Created as New Dataset,Sample 842 By YargerLab Date Monday, July 21 2025
cm-1,A
4000.00,0.0008
3999.00,0.0008
3998.00,0.0008
3997.00,0.0008
3996.00,0.0007
3995.00,0.0007
3994.00,0.0007
3993.00,0.0007
3992.00,0.0007
3991.00,0.0007
3990.00,0.0007
3989.00,0.0007
3988.00,0.0008
3987.00,0.0008
3986.00,0.0008
3985.00,0.0008
3984.00,0.0008
3983.00,0.0008
3982.00,0.0008
3981.00,0.0007
3980.00,0.0007
3979.00,0.0007
3978.00,0.0008
3977.00,0.0008
3976.00,0.0008
3975.00,0.0008
3974.00,0.0008
3973.00,0.0008
3972.00,0.0008
3971.00,0.0008
3970.00,0.0008
3969.00,0.0008
3968.00,0.0008
3967.00,0.0008
3966.00,0.0008
3965.00,0.0008
3964.00,0.0008
3963.00,0.0007
3962.00,0.0007
3961.00,0.0008
3960.00,0.0008
3959.00,0.0008
3958.00,0.0008
3957.00,0.0008
3956.00,0.0008
3955.00,0.0008
3954.00,0.0007
3953.00,0.0007
3952.00,0.0007
3951.00,0.0007
3950.00,0.0007
3949.00,0.0008
3948.00,0.0008
3947.00,0.0008
3946.00,0.0008
3945.00,0.0008
3944.00,0.0007
3943.00,0.0007
3942.00,0.0007
3941.00,0.0007
3940.00,0.0007
3939.00,0.0007
3938.00,0.0007
3937.00,0.0008
3936.00,0.0008
3935.00,0.0008
3934.00,0.0008
3933.00,0.0007
3932.00,0.0007
3931.00,0.0007
3930.00,0.0007
3929.00,0.0007
3928.00,0.0007
3927.00,0.0007
3926.00,0.0007
3925.00,0.0007
3924.00,0.0008
3923.00,0.0007
3922.00,0.0007
3921.00,0.0007
3920.00,0.0007
3919.00,0.0007
3918.00,0.0007
3917.00,0.0007
3916.00,0.0007
3915.00,0.0007
3914.00,0.0007
3913.00,0.0007
3912.00,0.0007
3911.00,0.0007
3910.00,0.0007
3909.00,0.0007
3908.00,0.0007
3907.00,0.0007
3906.00,0.0007
3905.00,0.0007
3904.00,0.0007
3903.00,0.0007
3902.00,0.0007
3901.00,0.0007
3900.00,0.0007
3899.00,0.0007
3898.00,0.0007
3897.00,0.0007
3896.00,0.0007
3895.00,0.0007
3894.00,0.0007
3893.00,0.0007
3892.00,0.0007
3891.00,0.0008
3890.00,0.0008
3889.00,0.0008
3888.00,0.0008
3887.00,0.0008
3886.00,0.0008
3885.00,0.0008
3884.00,0.0008
3883.00,0.0007
3882.00,0.0007
3881.00,0.0007
3880.00,0.0007
3879.00,0.0007
3878.00,0.0007
3877.00,0.0007
3876.00,0.0007
3875.00,0.0007
3874.00,0.0007
3873.00,0.0007
3872.00,0.0007
3871.00,0.0007
3870.00,0.0007
3869.00,0.0007
3868.00,0.0007
3867.00,0.0007
3866.00,0.0007
3865.00,0.0007
3864.00,0.0008
3863.00,0.0008
3862.00,0.0008
3861.00,0.0007
3860.00,0.0007
3859.00,0.0007
3858.00,0.0008
3857.00,0.0008
3856.00,0.0008
3855.00,0.0007
3854.00,0.0007
3853.00,0.0007
3852.00,0.0007
3851.00,0.0007
3850.00,0.0007
3849.00,0.0007
3848.00,0.0007
3847.00,0.0008
3846.00,0.0008
3845.00,0.0008
3844.00,0.0008
3843.00,0.0007
3842.00,0.0007
3841.00,0.0007
3840.00,0.0007
3839.00,0.0007
3838.00,0.0008
3837.00,0.0008
3836.00,0.0008
3835.00,0.0008
3834.00,0.0007
3833.00,0.0007
3832.00,0.0007
3831.00,0.0008
3830.00,0.0008
3829.00,0.0008
3828.00,0.0008
3827.00,0.0008
3826.00,0.0008
3825.00,0.0008
3824.00,0.0008
3823.00,0.0008
3822.00,0.0008
3821.00,0.0008
3820.00,0.0008
3819.00,0.0008
3818.00,0.0007
3817.00,0.0007
3816.00,0.0007
3815.00,0.0008
3814.00,0.0008
3813.00,0.0008
3812.00,0.0008
3811.00,0.0008
3810.00,0.0008
3809.00,0.0009
3808.00,0.0009
3807.00,0.0009
3806.00,0.0009
3805.00,0.0009
3804.00,0.0008
3803.00,0.0007
3802.00,0.0007
3801.00,0.0007
3800.00,0.0008
3799.00,0.0008
3798.00,0.0008
3797.00,0.0008
3796.00,0.0008
3795.00,0.0008
3794.00,0.0008
3793.00,0.0008
3792.00,0.0008
3791.00,0.0008
3790.00,0.0008
3789.00,0.0008
3788.00,0.0008
3787.00,0.0008
3786.00,0.0008
3785.00,0.0008
3784.00,0.0008
3783.00,0.0008
3782.00,0.0008
3781.00,0.0008
3780.00,0.0008
3779.00,0.0008
3778.00,0.0008
3777.00,0.0008
3776.00,0.0008
3775.00,0.0009
3774.00,0.0009
3773.00,0.0009
3772.00,0.0009
3771.00,0.0009
3770.00,0.0009
3769.00,0.0009
3768.00,0.0008
3767.00,0.0008
3766.00,0.0008
3765.00,0.0008
3764.00,0.0008
3763.00,0.0008
3762.00,0.0008
3761.00,0.0008
3760.00,0.0008
3759.00,0.0008
3758.00,0.0008
3757.00,0.0008
3756.00,0.0008
3755.00,0.0008
3754.00,0.0008
3753.00,0.0008
3752.00,0.0008
3751.00,0.0008
3750.00,0.0008
3749.00,0.0008
3748.00,0.0008
3747.00,0.0008
3746.00,0.0008
3745.00,0.0008
3744.00,0.0008
3743.00,0.0008
3742.00,0.0008
3741.00,0.0008
3740.00,0.0008
3739.00,0.0008
3738.00,0.0008
3737.00,0.0008
3736.00,0.0009
3735.00,0.0009
3734.00,0.0008
3733.00,0.0008
3732.00,0.0008
3731.00,0.0007
3730.00,0.0007
3729.00,0.0007
3728.00,0.0007
3727.00,0.0007
3726.00,0.0007
3725.00,0.0007
3724.00,0.0007
3723.00,0.0007
3722.00,0.0007
3721.00,0.0007
3720.00,0.0007
3719.00,0.0007
3718.00,0.0007
3717.00,0.0007
3716.00,0.0007
3715.00,0.0007
3714.00,0.0007
3713.00,0.0007
3712.00,0.0007
3711.00,0.0007
3710.00,0.0007
3709.00,0.0007
3708.00,0.0007
3707.00,0.0007
3706.00,0.0007
3705.00,0.0008
3704.00,0.0008
3703.00,0.0007
3702.00,0.0007
3701.00,0.0007
3700.00,0.0007
3699.00,0.0007
3698.00,0.0007
3697.00,0.0007
3696.00,0.0007
3695.00,0.0007
3694.00,0.0007
3693.00,0.0007
3692.00,0.0007
3691.00,0.0007
3690.00,0.0007
3689.00,0.0007
3688.00,0.0007
3687.00,0.0007
3686.00,0.0007
3685.00,0.0007
3684.00,0.0008
3683.00,0.0008
3682.00,0.0008
3681.00,0.0008
3680.00,0.0008
3679.00,0.0008
3678.00,0.0008
3677.00,0.0007
3676.00,0.0007
3675.00,0.0007
3674.00,0.0007
3673.00,0.0006
3672.00,0.0006
3671.00,0.0006
3670.00,0.0006
3669.00,0.0006
3668.00,0.0006
3667.00,0.0006
3666.00,0.0006
3665.00,0.0006
3664.00,0.0006
3663.00,0.0006
3662.00,0.0006
3661.00,0.0006
3660.00,0.0006
3659.00,0.0006
3658.00,0.0006
3657.00,0.0006
3656.00,0.0007
3655.00,0.0007
3654.00,0.0007
3653.00,0.0007
3652.00,0.0006
3651.00,0.0007
3650.00,0.0007
3649.00,0.0007
3648.00,0.0007
3647.00,0.0007
3646.00,0.0007
3645.00,0.0007
3644.00,0.0007
3643.00,0.0007
3642.00,0.0007
3641.00,0.0007
3640.00,0.0007
3639.00,0.0007
3638.00,0.0007
3637.00,0.0007
3636.00,0.0007
3635.00,0.0007
3634.00,0.0007
3633.00,0.0007
3632.00,0.0007
3631.00,0.0007
3630.00,0.0007
3629.00,0.0007
3628.00,0.0007
3627.00,0.0007
3626.00,0.0007
3625.00,0.0007
3624.00,0.0007
3623.00,0.0008
3622.00,0.0008
3621.00,0.0007
3620.00,0.0007
3619.00,0.0007
3618.00,0.0007
3617.00,0.0007
3616.00,0.0008
3615.00,0.0008
3614.00,0.0008
3613.00,0.0008
3612.00,0.0008
3611.00,0.0008
3610.00,0.0007
3609.00,0.0007
3608.00,0.0007
3607.00,0.0008
3606.00,0.0008
3605.00,0.0008
3604.00,0.0008
3603.00,0.0008
3602.00,0.0008
3601.00,0.0008
3600.00,0.0008
3599.00,0.0008
3598.00,0.0008
3597.00,0.0007
3596.00,0.0007
3595.00,0.0007
3594.00,0.0007
3593.00,0.0008
3592.00,0.0008
3591.00,0.0008
3590.00,0.0008
3589.00,0.0008
3588.00,0.0008
3587.00,0.0008
3586.00,0.0008
3585.00,0.0008
3584.00,0.0008
3583.00,0.0008
3582.00,0.0008
3581.00,0.0008
3580.00,0.0009
3579.00,0.0009
3578.00,0.0009
3577.00,0.0009
3576.00,0.0009
3575.00,0.0009
3574.00,0.0009
3573.00,0.0009
3572.00,0.0009
3571.00,0.0009
3570.00,0.0009
3569.00,0.0008
3568.00,0.0008
3567.00,0.0008
3566.00,0.0008
3565.00,0.0008
3564.00,0.0009
3563.00,0.0009
3562.00,0.0009
3561.00,0.0009
3560.00,0.0009
3559.00,0.0009
3558.00,0.0009
3557.00,0.0009
3556.00,0.0009
3555.00,0.0009
3554.00,0.0009
3553.00,0.0009
3552.00,0.0010
3551.00,0.0010
3550.00,0.0010
3549.00,0.0010
3548.00,0.0010
3547.00,0.0010
3546.00,0.0010
3545.00,0.0010
3544.00,0.0010
3543.00,0.0010
3542.00,0.0010
3541.00,0.0010
3540.00,0.0010
3539.00,0.0010
3538.00,0.0010
3537.00,0.0010
3536.00,0.0010
3535.00,0.0011
3534.00,0.0011
3533.00,0.0011
3532.00,0.0011
3531.00,0.0011
3530.00,0.0010
3529.00,0.0010
3528.00,0.0011
3527.00,0.0011
3526.00,0.0011
3525.00,0.0011
3524.00,0.0011
3523.00,0.0011
3522.00,0.0011
3521.00,0.0011
3520.00,0.0011
3519.00,0.0011
3518.00,0.0011
3517.00,0.0011
3516.00,0.0011
3515.00,0.0012
3514.00,0.0012
3513.00,0.0012
3512.00,0.0012
3511.00,0.0012
3510.00,0.0012
3509.00,0.0012
3508.00,0.0012
3507.00,0.0012
3506.00,0.0012
3505.00,0.0012
3504.00,0.0011
3503.00,0.0011
3502.00,0.0011
3501.00,0.0011
3500.00,0.0012
3499.00,0.0012
3498.00,0.0012
3497.00,0.0012
3496.00,0.0012
3495.00,0.0013
3494.00,0.0013
3493.00,0.0013
3492.00,0.0013
3491.00,0.0013
3490.00,0.0013
3489.00,0.0013
3488.00,0.0013
3487.00,0.0013
3486.00,0.0013
3485.00,0.0013
3484.00,0.0013
3483.00,0.0013
3482.00,0.0013
3481.00,0.0013
3480.00,0.0013
3479.00,0.0013
3478.00,0.0013
3477.00,0.0013
3476.00,0.0013
3475.00,0.0013
3474.00,0.0013
3473.00,0.0013
3472.00,0.0014
3471.00,0.0014
3470.00,0.0014
3469.00,0.0014
3468.00,0.0014
3467.00,0.0014
3466.00,0.0014
3465.00,0.0014
3464.00,0.0014
3463.00,0.0014
3462.00,0.0014
3461.00,0.0014
3460.00,0.0014
3459.00,0.0014
3458.00,0.0014
3457.00,0.0014
3456.00,0.0014
3455.00,0.0014
3454.00,0.0014
3453.00,0.0014
3452.00,0.0014
3451.00,0.0014
3450.00,0.0014
3449.00,0.0014
3448.00,0.0014
3447.00,0.0014
3446.00,0.0014
3445.00,0.0014
3444.00,0.0014
3443.00,0.0014
3442.00,0.0014
3441.00,0.0014
3440.00,0.0014
3439.00,0.0014
3438.00,0.0014
3437.00,0.0014
3436.00,0.0014
3435.00,0.0014
3434.00,0.0014
3433.00,0.0014
3432.00,0.0014
3431.00,0.0014
3430.00,0.0014
3429.00,0.0014
3428.00,0.0014
3427.00,0.0014
3426.00,0.0014
3425.00,0.0014
3424.00,0.0014
3423.00,0.0014
3422.00,0.0014
3421.00,0.0014
3420.00,0.0014
3419.00,0.0014
3418.00,0.0014
3417.00,0.0014
3416.00,0.0014
3415.00,0.0014
3414.00,0.0014
3413.00,0.0014
3412.00,0.0014
3411.00,0.0014
3410.00,0.0014
3409.00,0.0014
3408.00,0.0014
3407.00,0.0014
3406.00,0.0014
3405.00,0.0013
3404.00,0.0013
3403.00,0.0014
3402.00,0.0014
3401.00,0.0014
3400.00,0.0014
3399.00,0.0014
3398.00,0.0014
3397.00,0.0014
3396.00,0.0014
3395.00,0.0014
3394.00,0.0014
3393.00,0.0014
3392.00,0.0014
3391.00,0.0014
3390.00,0.0014
3389.00,0.0014
3388.00,0.0014
3387.00,0.0014
3386.00,0.0015
3385.00,0.0015
3384.00,0.0015
3383.00,0.0015
3382.00,0.0015
3381.00,0.0015
3380.00,0.0015
3379.00,0.0014
3378.00,0.0014
3377.00,0.0014
3376.00,0.0014
3375.00,0.0014
3374.00,0.0014
3373.00,0.0014
3372.00,0.0014
3371.00,0.0014
3370.00,0.0014
3369.00,0.0014
3368.00,0.0014
3367.00,0.0014
3366.00,0.0014
3365.00,0.0014
3364.00,0.0014
3363.00,0.0014
3362.00,0.0014
3361.00,0.0015
3360.00,0.0015
3359.00,0.0015
3358.00,0.0015
3357.00,0.0014
3356.00,0.0014
3355.00,0.0014
3354.00,0.0014
3353.00,0.0014
3352.00,0.0014
3351.00,0.0014
3350.00,0.0014
3349.00,0.0014
3348.00,0.0014
3347.00,0.0014
3346.00,0.0014
3345.00,0.0014
3344.00,0.0014
3343.00,0.0014
3342.00,0.0014
3341.00,0.0014
3340.00,0.0014
3339.00,0.0014
3338.00,0.0014
3337.00,0.0014
3336.00,0.0014
3335.00,0.0013
3334.00,0.0013
3333.00,0.0013
3332.00,0.0014
3331.00,0.0014
3330.00,0.0014
3329.00,0.0014
3328.00,0.0014
3327.00,0.0014
3326.00,0.0014
3325.00,0.0014
3324.00,0.0014
3323.00,0.0014
3322.00,0.0014
3321.00,0.0014
3320.00,0.0014
3319.00,0.0014
3318.00,0.0014
3317.00,0.0014
3316.00,0.0014
3315.00,0.0014
3314.00,0.0014
3313.00,0.0014
3312.00,0.0014
3311.00,0.0014
3310.00,0.0014
3309.00,0.0014
3308.00,0.0014
3307.00,0.0014
3306.00,0.0014
3305.00,0.0014
3304.00,0.0014
3303.00,0.0013
3302.00,0.0013
3301.00,0.0013
3300.00,0.0014
3299.00,0.0014
3298.00,0.0014
3297.00,0.0014
3296.00,0.0014
3295.00,0.0014
3294.00,0.0014
3293.00,0.0013
3292.00,0.0013
3291.00,0.0013
3290.00,0.0013
3289.00,0.0013
3288.00,0.0013
3287.00,0.0013
3286.00,0.0013
3285.00,0.0013
3284.00,0.0013
3283.00,0.0013
3282.00,0.0014
3281.00,0.0014
3280.00,0.0014
3279.00,0.0014
3278.00,0.0014
3277.00,0.0014
3276.00,0.0014
3275.00,0.0014
3274.00,0.0014
3273.00,0.0013
3272.00,0.0013
3271.00,0.0013
3270.00,0.0013
3269.00,0.0013
3268.00,0.0013
3267.00,0.0013
3266.00,0.0013
3265.00,0.0013
3264.00,0.0013
3263.00,0.0013
3262.00,0.0013
3261.00,0.0013
3260.00,0.0013
3259.00,0.0013
3258.00,0.0014
3257.00,0.0014
3256.00,0.0014
3255.00,0.0014
3254.00,0.0014
3253.00,0.0014
3252.00,0.0014
3251.00,0.0014
3250.00,0.0014
3249.00,0.0014
3248.00,0.0013
3247.00,0.0013
3246.00,0.0013
3245.00,0.0013
3244.00,0.0013
3243.00,0.0013
3242.00,0.0013
3241.00,0.0014
3240.00,0.0014
3239.00,0.0014
3238.00,0.0014
3237.00,0.0013
3236.00,0.0013
3235.00,0.0013
3234.00,0.0013
3233.00,0.0013
3232.00,0.0013
3231.00,0.0013
3230.00,0.0013
3229.00,0.0013
3228.00,0.0013
3227.00,0.0013
3226.00,0.0012
3225.00,0.0013
3224.00,0.0013
3223.00,0.0013
3222.00,0.0013
3221.00,0.0013
3220.00,0.0013
3219.00,0.0013
3218.00,0.0012
3217.00,0.0012
3216.00,0.0012
3215.00,0.0013
3214.00,0.0013
3213.00,0.0013
3212.00,0.0013
3211.00,0.0013
3210.00,0.0013
3209.00,0.0013
3208.00,0.0013
3207.00,0.0013
3206.00,0.0013
3205.00,0.0013
3204.00,0.0013
3203.00,0.0013
3202.00,0.0013
3201.00,0.0013
3200.00,0.0014
3199.00,0.0014
3198.00,0.0014
3197.00,0.0014
3196.00,0.0014
3195.00,0.0013
3194.00,0.0013
3193.00,0.0013
3192.00,0.0013
3191.00,0.0013
3190.00,0.0013
3189.00,0.0013
3188.00,0.0013
3187.00,0.0013
3186.00,0.0013
3185.00,0.0013
3184.00,0.0013
3183.00,0.0013
3182.00,0.0013
3181.00,0.0013
3180.00,0.0013
3179.00,0.0013
3178.00,0.0013
3177.00,0.0013
3176.00,0.0013
3175.00,0.0013
3174.00,0.0013
3173.00,0.0013
3172.00,0.0013
3171.00,0.0013
3170.00,0.0013
3169.00,0.0014
3168.00,0.0014
3167.00,0.0014
3166.00,0.0014
3165.00,0.0015
3164.00,0.0015
3163.00,0.0015
3162.00,0.0015
3161.00,0.0014
3160.00,0.0014
3159.00,0.0014
3158.00,0.0014
3157.00,0.0014
3156.00,0.0014
3155.00,0.0014
3154.00,0.0014
3153.00,0.0013
3152.00,0.0013
3151.00,0.0013
3150.00,0.0013
3149.00,0.0013
3148.00,0.0013
3147.00,0.0013
3146.00,0.0013
3145.00,0.0013
3144.00,0.0013
3143.00,0.0013
3142.00,0.0013
3141.00,0.0013
3140.00,0.0013
3139.00,0.0013
3138.00,0.0013
3137.00,0.0013
3136.00,0.0013
3135.00,0.0012
3134.00,0.0013
3133.00,0.0013
3132.00,0.0013
3131.00,0.0013
3130.00,0.0014
3129.00,0.0014
3128.00,0.0014
3127.00,0.0014
3126.00,0.0014
3125.00,0.0014
3124.00,0.0014
3123.00,0.0014
3122.00,0.0014
3121.00,0.0015
3120.00,0.0015
3119.00,0.0015
3118.00,0.0015
3117.00,0.0016
3116.00,0.0017
3115.00,0.0018
3114.00,0.0019
3113.00,0.0020
3112.00,0.0021
3111.00,0.0023
3110.00,0.0024
3109.00,0.0026
3108.00,0.0028
3107.00,0.0030
3106.00,0.0031
3105.00,0.0032
3104.00,0.0033
3103.00,0.0034
3102.00,0.0034
3101.00,0.0034
3100.00,0.0033
3099.00,0.0032
3098.00,0.0032
3097.00,0.0032
3096.00,0.0032
3095.00,0.0032
3094.00,0.0033
3093.00,0.0035
3092.00,0.0038
3091.00,0.0041
3090.00,0.0045
3089.00,0.0050
3088.00,0.0055
3087.00,0.0061
3086.00,0.0067
3085.00,0.0073
3084.00,0.0077
3083.00,0.0080
3082.00,0.0081
3081.00,0.0080
3080.00,0.0078
3079.00,0.0074
3078.00,0.0071
3077.00,0.0067
3076.00,0.0064
3075.00,0.0062
3074.00,0.0060
3073.00,0.0060
3072.00,0.0061
3071.00,0.0062
3070.00,0.0065
3069.00,0.0068
3068.00,0.0072
3067.00,0.0077
3066.00,0.0082
3065.00,0.0088
3064.00,0.0094
3063.00,0.0100
3062.00,0.0106
3061.00,0.0110
3060.00,0.0112
3059.00,0.0112
3058.00,0.0109
3057.00,0.0105
3056.00,0.0100
3055.00,0.0093
3054.00,0.0087
3053.00,0.0081
3052.00,0.0076
3051.00,0.0071
3050.00,0.0067
3049.00,0.0064
3048.00,0.0061
3047.00,0.0059
3046.00,0.0058
3045.00,0.0058
3044.00,0.0058
3043.00,0.0060
3042.00,0.0061
3041.00,0.0064
3040.00,0.0067
3039.00,0.0071
3038.00,0.0077
3037.00,0.0083
3036.00,0.0090
3035.00,0.0099
3034.00,0.0110
3033.00,0.0122
3032.00,0.0135
3031.00,0.0150
3030.00,0.0166
3029.00,0.0181
3028.00,0.0195
3027.00,0.0206
3026.00,0.0213
3025.00,0.0215
3024.00,0.0211
3023.00,0.0202
3022.00,0.0188
3021.00,0.0171
3020.00,0.0152
3019.00,0.0134
3018.00,0.0117
3017.00,0.0102
3016.00,0.0090
3015.00,0.0079
3014.00,0.0071
3013.00,0.0064
3012.00,0.0059
3011.00,0.0055
3010.00,0.0053
3009.00,0.0052
3008.00,0.0052
3007.00,0.0052
3006.00,0.0053
3005.00,0.0055
3004.00,0.0056
3003.00,0.0058
3002.00,0.0058
3001.00,0.0058
3000.00,0.0056
2999.00,0.0054
2998.00,0.0050
2997.00,0.0046
2996.00,0.0042
2995.00,0.0038
2994.00,0.0035
2993.00,0.0032
2992.00,0.0030
2991.00,0.0028
2990.00,0.0027
2989.00,0.0027
2988.00,0.0026
2987.00,0.0026
2986.00,0.0025
2985.00,0.0024
2984.00,0.0023
2983.00,0.0022
2982.00,0.0021
2981.00,0.0021
2980.00,0.0022
2979.00,0.0023
2978.00,0.0024
2977.00,0.0025
2976.00,0.0026
2975.00,0.0027
2974.00,0.0028
2973.00,0.0028
2972.00,0.0028
2971.00,0.0029
2970.00,0.0030
2969.00,0.0031
2968.00,0.0033
2967.00,0.0034
2966.00,0.0036
2965.00,0.0037
2964.00,0.0039
2963.00,0.0041
2962.00,0.0042
2961.00,0.0044
2960.00,0.0046
2959.00,0.0048
2958.00,0.0051
2957.00,0.0053
2956.00,0.0055
2955.00,0.0058
2954.00,0.0061
2953.00,0.0064
2952.00,0.0068
2951.00,0.0072
2950.00,0.0076
2949.00,0.0080
2948.00,0.0084
2947.00,0.0089
2946.00,0.0094
2945.00,0.0099
2944.00,0.0105
2943.00,0.0111
2942.00,0.0118
2941.00,0.0125
2940.00,0.0132
2939.00,0.0140
2938.00,0.0148
2937.00,0.0156
2936.00,0.0165
2935.00,0.0174
2934.00,0.0183
2933.00,0.0193
2932.00,0.0202
2931.00,0.0211
2930.00,0.0220
2929.00,0.0228
2928.00,0.0235
2927.00,0.0241
2926.00,0.0246
2925.00,0.0251
2924.00,0.0254
2923.00,0.0256
2922.00,0.0257
2921.00,0.0257
2920.00,0.0256
2919.00,0.0254
2918.00,0.0252
2917.00,0.0248
2916.00,0.0244
2915.00,0.0239
2914.00,0.0233
2913.00,0.0228
2912.00,0.0222
2911.00,0.0215
2910.00,0.0209
2909.00,0.0202
2908.00,0.0195
2907.00,0.0189
2906.00,0.0182
2905.00,0.0175
2904.00,0.0168
2903.00,0.0162
2902.00,0.0155
2901.00,0.0148
2900.00,0.0142
2899.00,0.0136
2898.00,0.0130
2897.00,0.0124
2896.00,0.0119
2895.00,0.0114
2894.00,0.0110
2893.00,0.0106
2892.00,0.0103
2891.00,0.0100
2890.00,0.0097
2889.00,0.0094
2888.00,0.0091
2887.00,0.0089
2886.00,0.0087
2885.00,0.0085
2884.00,0.0083
2883.00,0.0081
2882.00,0.0079
2881.00,0.0077
2880.00,0.0075
2879.00,0.0073
2878.00,0.0072
2877.00,0.0070
2876.00,0.0068
2875.00,0.0067
2874.00,0.0066
2873.00,0.0065
2872.00,0.0064
2871.00,0.0063
2870.00,0.0063
2869.00,0.0063
2868.00,0.0063
2867.00,0.0064
2866.00,0.0065
2865.00,0.0067
2864.00,0.0069
2863.00,0.0071
2862.00,0.0074
2861.00,0.0076
2860.00,0.0080
2859.00,0.0084
2858.00,0.0088
2857.00,0.0092
2856.00,0.0096
2855.00,0.0100
2854.00,0.0104
2853.00,0.0107
2852.00,0.0110
2851.00,0.0112
2850.00,0.0113
2849.00,0.0113
2848.00,0.0112
2847.00,0.0111
2846.00,0.0108
2845.00,0.0104
2844.00,0.0099
2843.00,0.0093
2842.00,0.0086
2841.00,0.0080
2840.00,0.0073
2839.00,0.0066
2838.00,0.0060
2837.00,0.0055
2836.00,0.0050
2835.00,0.0045
2834.00,0.0042
2833.00,0.0039
2832.00,0.0036
2831.00,0.0034
2830.00,0.0032
2829.00,0.0031
2828.00,0.0029
2827.00,0.0028
2826.00,0.0028
2825.00,0.0027
2824.00,0.0026
2823.00,0.0026
2822.00,0.0025
2821.00,0.0025
2820.00,0.0025
2819.00,0.0025
2818.00,0.0024
2817.00,0.0024
2816.00,0.0024
2815.00,0.0024
2814.00,0.0024
2813.00,0.0024
2812.00,0.0023
2811.00,0.0023
2810.00,0.0023
2809.00,0.0023
2808.00,0.0022
2807.00,0.0022
2806.00,0.0022
2805.00,0.0022
2804.00,0.0022
2803.00,0.0022
2802.00,0.0021
2801.00,0.0021
2800.00,0.0021
2799.00,0.0021
2798.00,0.0020
2797.00,0.0020
2796.00,0.0020
2795.00,0.0020
2794.00,0.0020
2793.00,0.0020
2792.00,0.0020
2791.00,0.0020
2790.00,0.0019
2789.00,0.0019
2788.00,0.0019
2787.00,0.0019
2786.00,0.0018
2785.00,0.0018
2784.00,0.0018
2783.00,0.0019
2782.00,0.0019
2781.00,0.0019
2780.00,0.0019
2779.00,0.0018
2778.00,0.0018
2777.00,0.0018
2776.00,0.0018
2775.00,0.0018
2774.00,0.0018
2773.00,0.0018
2772.00,0.0018
2771.00,0.0018
2770.00,0.0018
2769.00,0.0017
2768.00,0.0017
2767.00,0.0017
2766.00,0.0017
2765.00,0.0017
2764.00,0.0017
2763.00,0.0017
2762.00,0.0017
2761.00,0.0017
2760.00,0.0016
2759.00,0.0016
2758.00,0.0016
2757.00,0.0016
2756.00,0.0017
2755.00,0.0017
2754.00,0.0017
2753.00,0.0017
2752.00,0.0016
2751.00,0.0016
2750.00,0.0016
2749.00,0.0016
2748.00,0.0016
2747.00,0.0016
2746.00,0.0016
2745.00,0.0016
2744.00,0.0016
2743.00,0.0016
2742.00,0.0016
2741.00,0.0016
2740.00,0.0016
2739.00,0.0016
2738.00,0.0016
2737.00,0.0016
2736.00,0.0016
2735.00,0.0016
2734.00,0.0016
2733.00,0.0016
2732.00,0.0016
2731.00,0.0017
2730.00,0.0017
2729.00,0.0017
2728.00,0.0017
2727.00,0.0017
2726.00,0.0017
2725.00,0.0017
2724.00,0.0017
2723.00,0.0017
2722.00,0.0017
2721.00,0.0016
2720.00,0.0017
2719.00,0.0017
2718.00,0.0017
2717.00,0.0017
2716.00,0.0017
2715.00,0.0016
2714.00,0.0016
2713.00,0.0016
2712.00,0.0016
2711.00,0.0016
2710.00,0.0016
2709.00,0.0016
2708.00,0.0016
2707.00,0.0016
2706.00,0.0016
2705.00,0.0016
2704.00,0.0016
2703.00,0.0016
2702.00,0.0016
2701.00,0.0016
2700.00,0.0016
2699.00,0.0016
2698.00,0.0016
2697.00,0.0016
2696.00,0.0016
2695.00,0.0016
2694.00,0.0016
2693.00,0.0017
2692.00,0.0017
2691.00,0.0017
2690.00,0.0017
2689.00,0.0017
2688.00,0.0017
2687.00,0.0017
2686.00,0.0017
2685.00,0.0017
2684.00,0.0016
2683.00,0.0016
2682.00,0.0016
2681.00,0.0016
2680.00,0.0016
2679.00,0.0016
2678.00,0.0016
2677.00,0.0016
2676.00,0.0016
2675.00,0.0016
2674.00,0.0016
2673.00,0.0016
2672.00,0.0016
2671.00,0.0016
2670.00,0.0016
2669.00,0.0017
2668.00,0.0017
2667.00,0.0017
2666.00,0.0017
2665.00,0.0018
2664.00,0.0018
2663.00,0.0019
2662.00,0.0019
2661.00,0.0020
2660.00,0.0020
2659.00,0.0020
2658.00,0.0021
2657.00,0.0021
2656.00,0.0021
2655.00,0.0021
2654.00,0.0021
2653.00,0.0021
2652.00,0.0021
2651.00,0.0021
2650.00,0.0021
2649.00,0.0021
2648.00,0.0021
2647.00,0.0021
2646.00,0.0021
2645.00,0.0021
2644.00,0.0021
2643.00,0.0021
2642.00,0.0021
2641.00,0.0022
2640.00,0.0022
2639.00,0.0021
2638.00,0.0021
2637.00,0.0021
2636.00,0.0021
2635.00,0.0021
2634.00,0.0021
2633.00,0.0021
2632.00,0.0022
2631.00,0.0022
2630.00,0.0022
2629.00,0.0022
2628.00,0.0021
2627.00,0.0021
2626.00,0.0020
2625.00,0.0020
2624.00,0.0020
2623.00,0.0020
2622.00,0.0019
2621.00,0.0019
2620.00,0.0019
2619.00,0.0019
2618.00,0.0019
2617.00,0.0019
2616.00,0.0019
2615.00,0.0019
2614.00,0.0019
2613.00,0.0019
2612.00,0.0019
2611.00,0.0019
2610.00,0.0019
2609.00,0.0019
2608.00,0.0019
2607.00,0.0019
2606.00,0.0019
2605.00,0.0019
2604.00,0.0019
2603.00,0.0019
2602.00,0.0019
2601.00,0.0018
2600.00,0.0018
2599.00,0.0018
2598.00,0.0018
2597.00,0.0018
2596.00,0.0018
2595.00,0.0018
2594.00,0.0017
2593.00,0.0017
2592.00,0.0017
2591.00,0.0016
2590.00,0.0016
2589.00,0.0016
2588.00,0.0017
2587.00,0.0017
2586.00,0.0017
2585.00,0.0017
2584.00,0.0017
2583.00,0.0017
2582.00,0.0017
2581.00,0.0016
2580.00,0.0016
2579.00,0.0016
2578.00,0.0016
2577.00,0.0016
2576.00,0.0015
2575.00,0.0015
2574.00,0.0015
2573.00,0.0015
2572.00,0.0015
2571.00,0.0015
2570.00,0.0015
2569.00,0.0015
2568.00,0.0015
2567.00,0.0015
2566.00,0.0014
2565.00,0.0014
2564.00,0.0014
2563.00,0.0014
2562.00,0.0014
2561.00,0.0014
2560.00,0.0014
2559.00,0.0014
2558.00,0.0014
2557.00,0.0014
2556.00,0.0014
2555.00,0.0014
2554.00,0.0014
2553.00,0.0014
2552.00,0.0014
2551.00,0.0014
2550.00,0.0014
2549.00,0.0014
2548.00,0.0014
2547.00,0.0014
2546.00,0.0013
2545.00,0.0013
2544.00,0.0014
2543.00,0.0014
2542.00,0.0014
2541.00,0.0013
2540.00,0.0013
2539.00,0.0013
2538.00,0.0013
2537.00,0.0013
2536.00,0.0013
2535.00,0.0013
2534.00,0.0013
2533.00,0.0013
2532.00,0.0013
2531.00,0.0013
2530.00,0.0013
2529.00,0.0013
2528.00,0.0013
2527.00,0.0013
2526.00,0.0013
2525.00,0.0013
2524.00,0.0013
2523.00,0.0013
2522.00,0.0013
2521.00,0.0013
2520.00,0.0013
2519.00,0.0013
2518.00,0.0012
2517.00,0.0012
2516.00,0.0012
2515.00,0.0012
2514.00,0.0012
2513.00,0.0013
2512.00,0.0013
2511.00,0.0013
2510.00,0.0013
2509.00,0.0013
2508.00,0.0013
2507.00,0.0012
2506.00,0.0012
2505.00,0.0012
2504.00,0.0012
2503.00,0.0012
2502.00,0.0011
2501.00,0.0012
2500.00,0.0012
2499.00,0.0012
2498.00,0.0012
2497.00,0.0012
2496.00,0.0012
2495.00,0.0012
2494.00,0.0012
2493.00,0.0012
2492.00,0.0012
2491.00,0.0012
2490.00,0.0012
2489.00,0.0013
2488.00,0.0013
2487.00,0.0013
2486.00,0.0013
2485.00,0.0012
2484.00,0.0012
2483.00,0.0012
2482.00,0.0012
2481.00,0.0012
2480.00,0.0012
2479.00,0.0012
2478.00,0.0011
2477.00,0.0011
2476.00,0.0010
2475.00,0.0010
2474.00,0.0010
2473.00,0.0010
2472.00,0.0010
2471.00,0.0010
2470.00,0.0011
2469.00,0.0011
2468.00,0.0011
2467.00,0.0011
2466.00,0.0011
2465.00,0.0011
2464.00,0.0012
2463.00,0.0012
2462.00,0.0012
2461.00,0.0012
2460.00,0.0013
2459.00,0.0013
2458.00,0.0013
2457.00,0.0013
2456.00,0.0013
2455.00,0.0013
2454.00,0.0013
2453.00,0.0013
2452.00,0.0012
2451.00,0.0012
2450.00,0.0012
2449.00,0.0012
2448.00,0.0011
2447.00,0.0011
2446.00,0.0011
2445.00,0.0011
2444.00,0.0011
2443.00,0.0010
2442.00,0.0010
2441.00,0.0010
2440.00,0.0010
2439.00,0.0010
2438.00,0.0010
2437.00,0.0010
2436.00,0.0010
2435.00,0.0010
2434.00,0.0010
2433.00,0.0010
2432.00,0.0009
2431.00,0.0009
2430.00,0.0009
2429.00,0.0009
2428.00,0.0009
2427.00,0.0009
2426.00,0.0009
2425.00,0.0009
2424.00,0.0009
2423.00,0.0009
2422.00,0.0009
2421.00,0.0009
2420.00,0.0009
2419.00,0.0009
2418.00,0.0009
2417.00,0.0009
2416.00,0.0009
2415.00,0.0009
2414.00,0.0009
2413.00,0.0009
2412.00,0.0010
2411.00,0.0010
2410.00,0.0009
2409.00,0.0008
2408.00,0.0008
2407.00,0.0007
2406.00,0.0007
2405.00,0.0007
2404.00,0.0007
2403.00,0.0007
2402.00,0.0007
2401.00,0.0007
2400.00,0.0007
2399.00,0.0008
2398.00,0.0008
2397.00,0.0008
2396.00,0.0008
2395.00,0.0008
2394.00,0.0008
2393.00,0.0008
2392.00,0.0008
2391.00,0.0008
2390.00,0.0008
2389.00,0.0008
2388.00,0.0008
2387.00,0.0008
2386.00,0.0007
2385.00,0.0007
2384.00,0.0007
2383.00,0.0007
2382.00,0.0007
2381.00,0.0007
2380.00,0.0007
2379.00,0.0007
2378.00,0.0007
2377.00,0.0007
2376.00,0.0008
2375.00,0.0008
2374.00,0.0008
2373.00,0.0007
2372.00,0.0007
2371.00,0.0006
2370.00,0.0006
2369.00,0.0005
2368.00,0.0005
2367.00,0.0006
2366.00,0.0007
2365.00,0.0008
2364.00,0.0009
2363.00,0.0009
2362.00,0.0009
2361.00,0.0009
2360.00,0.0010
2359.00,0.0010
2358.00,0.0011
2357.00,0.0011
2356.00,0.0011
2355.00,0.0011
2354.00,0.0011
2353.00,0.0011
2352.00,0.0011
2351.00,0.0012
2350.00,0.0013
2349.00,0.0014
2348.00,0.0014
2347.00,0.0014
2346.00,0.0013
2345.00,0.0013
2344.00,0.0014
2343.00,0.0014
2342.00,0.0014
2341.00,0.0015
2340.00,0.0015
2339.00,0.0016
2338.00,0.0016
2337.00,0.0016
2336.00,0.0016
2335.00,0.0016
2334.00,0.0015
2333.00,0.0015
2332.00,0.0014
2331.00,0.0014
2330.00,0.0014
2329.00,0.0016
2328.00,0.0019
2327.00,0.0023
2326.00,0.0026
2325.00,0.0027
2324.00,0.0027
2323.00,0.0025
2322.00,0.0024
2321.00,0.0023
2320.00,0.0022
2319.00,0.0022
2318.00,0.0022
2317.00,0.0021
2316.00,0.0021
2315.00,0.0021
2314.00,0.0020
2313.00,0.0020
2312.00,0.0020
2311.00,0.0019
2310.00,0.0019
2309.00,0.0018
2308.00,0.0018
2307.00,0.0018
2306.00,0.0017
2305.00,0.0017
2304.00,0.0017
2303.00,0.0017
2302.00,0.0017
2301.00,0.0017
2300.00,0.0017
2299.00,0.0017
2298.00,0.0018
2297.00,0.0018
2296.00,0.0019
2295.00,0.0019
2294.00,0.0020
2293.00,0.0021
2292.00,0.0022
2291.00,0.0022
2290.00,0.0023
2289.00,0.0023
2288.00,0.0024
2287.00,0.0024
2286.00,0.0024
2285.00,0.0023
2284.00,0.0021
2283.00,0.0020
2282.00,0.0019
2281.00,0.0019
2280.00,0.0018
2279.00,0.0018
2278.00,0.0017
2277.00,0.0017
2276.00,0.0016
2275.00,0.0016
2274.00,0.0016
2273.00,0.0017
2272.00,0.0017
2271.00,0.0017
2270.00,0.0016
2269.00,0.0016
2268.00,0.0016
2267.00,0.0015
2266.00,0.0015
2265.00,0.0014
2264.00,0.0014
2263.00,0.0015
2262.00,0.0015
2261.00,0.0015
2260.00,0.0016
2259.00,0.0015
2258.00,0.0015
2257.00,0.0015
2256.00,0.0014
2255.00,0.0013
2254.00,0.0012
2253.00,0.0012
2252.00,0.0012
2251.00,0.0012
2250.00,0.0012
2249.00,0.0013
2248.00,0.0013
2247.00,0.0013
2246.00,0.0013
2245.00,0.0013
2244.00,0.0013
2243.00,0.0013
2242.00,0.0013
2241.00,0.0013
2240.00,0.0013
2239.00,0.0012
2238.00,0.0012
2237.00,0.0011
2236.00,0.0012
2235.00,0.0012
2234.00,0.0012
2233.00,0.0012
2232.00,0.0012
2231.00,0.0011
2230.00,0.0011
2229.00,0.0011
2228.00,0.0011
2227.00,0.0011
2226.00,0.0011
2225.00,0.0011
2224.00,0.0011
2223.00,0.0011
2222.00,0.0011
2221.00,0.0011
2220.00,0.0011
2219.00,0.0010
2218.00,0.0010
2217.00,0.0011
2216.00,0.0012
2215.00,0.0012
2214.00,0.0011
2213.00,0.0011
2212.00,0.0012
2211.00,0.0012
2210.00,0.0012
2209.00,0.0011
2208.00,0.0010
2207.00,0.0009
2206.00,0.0008
2205.00,0.0009
2204.00,0.0011
2203.00,0.0012
2202.00,0.0013
2201.00,0.0013
2200.00,0.0012
2199.00,0.0012
2198.00,0.0010
2197.00,0.0009
2196.00,0.0009
2195.00,0.0009
2194.00,0.0009
2193.00,0.0010
2192.00,0.0011
2191.00,0.0012
2190.00,0.0012
2189.00,0.0013
2188.00,0.0014
2187.00,0.0014
2186.00,0.0014
2185.00,0.0012
2184.00,0.0010
2183.00,0.0008
2182.00,0.0008
2181.00,0.0009
2180.00,0.0010
2179.00,0.0011
2178.00,0.0009
2177.00,0.0007
2176.00,0.0005
2175.00,0.0005
2174.00,0.0007
2173.00,0.0009
2172.00,0.0012
2171.00,0.0015
2170.00,0.0017
2169.00,0.0019
2168.00,0.0019
2167.00,0.0017
2166.00,0.0016
2165.00,0.0016
2164.00,0.0019
2163.00,0.0020
2162.00,0.0016
2161.00,0.0007
2160.00,-0.0006
2159.00,-0.0017
2158.00,-0.0023
2157.00,-0.0022
2156.00,-0.0019
2155.00,-0.0016
2154.00,-0.0013
2153.00,-0.0011
2152.00,-0.0009
2151.00,-0.0009
2150.00,-0.0009
2149.00,-0.0010
2148.00,-0.0010
2147.00,-0.0010
2146.00,-0.0009
2145.00,-0.0008
2144.00,-0.0007
2143.00,-0.0007
2142.00,-0.0007
2141.00,-0.0008
2140.00,-0.0008
2139.00,-0.0009
2138.00,-0.0010
2137.00,-0.0010
2136.00,-0.0012
2135.00,-0.0013
2134.00,-0.0015
2133.00,-0.0014
2132.00,-0.0012
2131.00,-0.0010
2130.00,-0.0008
2129.00,-0.0006
2128.00,-0.0005
2127.00,-0.0004
2126.00,-0.0003
2125.00,-0.0002
2124.00,-0.0002
2123.00,-0.0001
2122.00,-0.0000
2121.00,0.0001
2120.00,0.0002
2119.00,0.0003
2118.00,0.0004
2117.00,0.0005
2116.00,0.0006
2115.00,0.0007
2114.00,0.0007
2113.00,0.0007
2112.00,0.0007
2111.00,0.0007
2110.00,0.0007
2109.00,0.0007
2108.00,0.0007
2107.00,0.0008
2106.00,0.0008
2105.00,0.0008
2104.00,0.0008
2103.00,0.0008
2102.00,0.0008
2101.00,0.0008
2100.00,0.0008
2099.00,0.0007
2098.00,0.0005
2097.00,0.0003
2096.00,0.0002
2095.00,0.0001
2094.00,0.0001
2093.00,0.0002
2092.00,0.0004
2091.00,0.0005
2090.00,0.0006
2089.00,0.0006
2088.00,0.0006
2087.00,0.0006
2086.00,0.0006
2085.00,0.0006
2084.00,0.0007
2083.00,0.0008
2082.00,0.0008
2081.00,0.0009
2080.00,0.0009
2079.00,0.0010
2078.00,0.0010
2077.00,0.0010
2076.00,0.0010
2075.00,0.0009
2074.00,0.0008
2073.00,0.0007
2072.00,0.0006
2071.00,0.0005
2070.00,0.0005
2069.00,0.0004
2068.00,0.0004
2067.00,0.0004
2066.00,0.0005
2065.00,0.0005
2064.00,0.0006
2063.00,0.0006
2062.00,0.0006
2061.00,0.0006
2060.00,0.0005
2059.00,0.0004
2058.00,0.0003
2057.00,0.0003
2056.00,0.0003
2055.00,0.0004
2054.00,0.0006
2053.00,0.0011
2052.00,0.0015
2051.00,0.0016
2050.00,0.0015
2049.00,0.0011
2048.00,0.0009
2047.00,0.0007
2046.00,0.0005
2045.00,0.0004
2044.00,0.0004
2043.00,0.0004
2042.00,0.0004
2041.00,0.0005
2040.00,0.0007
2039.00,0.0007
2038.00,0.0006
2037.00,0.0005
2036.00,0.0004
2035.00,0.0003
2034.00,0.0003
2033.00,0.0003
2032.00,0.0003
2031.00,0.0003
2030.00,0.0002
2029.00,0.0002
2028.00,0.0004
2027.00,0.0005
2026.00,0.0005
2025.00,0.0004
2024.00,0.0003
2023.00,0.0001
2022.00,0.0000
2021.00,-0.0000
2020.00,0.0001
2019.00,0.0002
2018.00,0.0002
2017.00,0.0002
2016.00,0.0002
2015.00,0.0001
2014.00,0.0001
2013.00,0.0001
2012.00,0.0003
2011.00,0.0004
2010.00,0.0003
2009.00,0.0002
2008.00,-0.0001
2007.00,-0.0004
2006.00,-0.0007
2005.00,-0.0007
2004.00,-0.0006
2003.00,-0.0004
2002.00,-0.0002
2001.00,-0.0000
2000.00,0.0002
1999.00,0.0002
1998.00,0.0002
1997.00,0.0002
1996.00,0.0003
1995.00,0.0004
1994.00,0.0005
1993.00,0.0006
1992.00,0.0007
1991.00,0.0008
1990.00,0.0008
1989.00,0.0009
1988.00,0.0011
1987.00,0.0012
1986.00,0.0014
1985.00,0.0016
1984.00,0.0019
1983.00,0.0021
1982.00,0.0023
1981.00,0.0024
1980.00,0.0022
1979.00,0.0017
1978.00,0.0010
1977.00,0.0005
1976.00,0.0002
1975.00,0.0001
1974.00,0.0000
1973.00,-0.0001
1972.00,-0.0000
1971.00,0.0000
1970.00,0.0001
1969.00,0.0003
1968.00,0.0004
1967.00,0.0006
1966.00,0.0006
1965.00,0.0007
1964.00,0.0008
1963.00,0.0009
1962.00,0.0010
1961.00,0.0009
1960.00,0.0009
1959.00,0.0009
1958.00,0.0010
1957.00,0.0011
1956.00,0.0014
1955.00,0.0016
1954.00,0.0018
1953.00,0.0019
1952.00,0.0020
1951.00,0.0020
1950.00,0.0020
1949.00,0.0020
1948.00,0.0021
1947.00,0.0024
1946.00,0.0026
1945.00,0.0028
1944.00,0.0029
1943.00,0.0029
1942.00,0.0029
1941.00,0.0028
1940.00,0.0027
1939.00,0.0025
1938.00,0.0023
1937.00,0.0022
1936.00,0.0020
1935.00,0.0019
1934.00,0.0018
1933.00,0.0016
1932.00,0.0014
1931.00,0.0013
1930.00,0.0011
1929.00,0.0011
1928.00,0.0010
1927.00,0.0009
1926.00,0.0009
1925.00,0.0008
1924.00,0.0008
1923.00,0.0008
1922.00,0.0008
1921.00,0.0007
1920.00,0.0007
1919.00,0.0006
1918.00,0.0005
1917.00,0.0005
1916.00,0.0006
1915.00,0.0006
1914.00,0.0006
1913.00,0.0006
1912.00,0.0006
1911.00,0.0006
1910.00,0.0006
1909.00,0.0007
1908.00,0.0007
1907.00,0.0007
1906.00,0.0007
1905.00,0.0007
1904.00,0.0008
1903.00,0.0008
1902.00,0.0009
1901.00,0.0009
1900.00,0.0009
1899.00,0.0010
1898.00,0.0010
1897.00,0.0011
1896.00,0.0012
1895.00,0.0012
1894.00,0.0013
1893.00,0.0014
1892.00,0.0015
1891.00,0.0016
1890.00,0.0016
1889.00,0.0018
1888.00,0.0019
1887.00,0.0020
1886.00,0.0021
1885.00,0.0021
1884.00,0.0022
1883.00,0.0023
1882.00,0.0024
1881.00,0.0025
1880.00,0.0026
1879.00,0.0026
1878.00,0.0027
1877.00,0.0028
1876.00,0.0028
1875.00,0.0029
1874.00,0.0029
1873.00,0.0029
1872.00,0.0030
1871.00,0.0030
1870.00,0.0030
1869.00,0.0030
1868.00,0.0029
1867.00,0.0028
1866.00,0.0027
1865.00,0.0026
1864.00,0.0025
1863.00,0.0024
1862.00,0.0022
1861.00,0.0021
1860.00,0.0019
1859.00,0.0018
1858.00,0.0017
1857.00,0.0016
1856.00,0.0015
1855.00,0.0014
1854.00,0.0013
1853.00,0.0012
1852.00,0.0012
1851.00,0.0012
1850.00,0.0012
1849.00,0.0012
1848.00,0.0012
1847.00,0.0011
1846.00,0.0011
1845.00,0.0010
1844.00,0.0010
1843.00,0.0010
1842.00,0.0009
1841.00,0.0009
1840.00,0.0009
1839.00,0.0008
1838.00,0.0008
1837.00,0.0008
1836.00,0.0008
1835.00,0.0009
1834.00,0.0009
1833.00,0.0010
1832.00,0.0011
1831.00,0.0011
1830.00,0.0012
1829.00,0.0013
1828.00,0.0014
1827.00,0.0015
1826.00,0.0015
1825.00,0.0016
1824.00,0.0017
1823.00,0.0018
1822.00,0.0018
1821.00,0.0019
1820.00,0.0019
1819.00,0.0018
1818.00,0.0018
1817.00,0.0019
1816.00,0.0020
1815.00,0.0022
1814.00,0.0024
1813.00,0.0026
1812.00,0.0027
1811.00,0.0028
1810.00,0.0029
1809.00,0.0030
1808.00,0.0031
1807.00,0.0033
1806.00,0.0034
1805.00,0.0034
1804.00,0.0035
1803.00,0.0035
1802.00,0.0036
1801.00,0.0035
1800.00,0.0035
1799.00,0.0035
1798.00,0.0034
1797.00,0.0033
1796.00,0.0032
1795.00,0.0030
1794.00,0.0029
1793.00,0.0027
1792.00,0.0026
1791.00,0.0024
1790.00,0.0023
1789.00,0.0022
1788.00,0.0021
1787.00,0.0021
1786.00,0.0021
1785.00,0.0021
1784.00,0.0020
1783.00,0.0020
1782.00,0.0020
1781.00,0.0020
1780.00,0.0021
1779.00,0.0021
1778.00,0.0021
1777.00,0.0021
1776.00,0.0022
1775.00,0.0022
1774.00,0.0023
1773.00,0.0023
1772.00,0.0023
1771.00,0.0024
1770.00,0.0024
1769.00,0.0024
1768.00,0.0024
1767.00,0.0024
1766.00,0.0024
1765.00,0.0024
1764.00,0.0025
1763.00,0.0025
1762.00,0.0026
1761.00,0.0027
1760.00,0.0029
1759.00,0.0030
1758.00,0.0031
1757.00,0.0032
1756.00,0.0033
1755.00,0.0034
1754.00,0.0035
1753.00,0.0036
1752.00,0.0037
1751.00,0.0039
1750.00,0.0040
1749.00,0.0041
1748.00,0.0042
1747.00,0.0043
1746.00,0.0043
1745.00,0.0043
1744.00,0.0044
1743.00,0.0044
1742.00,0.0044
1741.00,0.0044
1740.00,0.0044
1739.00,0.0044
1738.00,0.0044
1737.00,0.0044
1736.00,0.0044
1735.00,0.0044
1734.00,0.0042
1733.00,0.0041
1732.00,0.0040
1731.00,0.0039
1730.00,0.0039
1729.00,0.0039
1728.00,0.0038
1727.00,0.0038
1726.00,0.0038
1725.00,0.0037
1724.00,0.0037
1723.00,0.0036
1722.00,0.0036
1721.00,0.0035
1720.00,0.0035
1719.00,0.0035
1718.00,0.0035
1717.00,0.0035
1716.00,0.0035
1715.00,0.0034
1714.00,0.0034
1713.00,0.0033
1712.00,0.0033
1711.00,0.0033
1710.00,0.0033
1709.00,0.0033
1708.00,0.0033
1707.00,0.0032
1706.00,0.0032
1705.00,0.0032
1704.00,0.0032
1703.00,0.0032
1702.00,0.0032
1701.00,0.0031
1700.00,0.0030
1699.00,0.0030
1698.00,0.0030
1697.00,0.0030
1696.00,0.0030
1695.00,0.0030
1694.00,0.0031
1693.00,0.0031
1692.00,0.0031
1691.00,0.0031
1690.00,0.0031
1689.00,0.0032
1688.00,0.0032
1687.00,0.0033
1686.00,0.0033
1685.00,0.0034
1684.00,0.0035
1683.00,0.0035
1682.00,0.0035
1681.00,0.0036
1680.00,0.0036
1679.00,0.0036
1678.00,0.0037
1677.00,0.0037
1676.00,0.0037
1675.00,0.0038
1674.00,0.0038
1673.00,0.0038
1672.00,0.0039
1671.00,0.0039
1670.00,0.0039
1669.00,0.0039
1668.00,0.0039
1667.00,0.0039
1666.00,0.0039
1665.00,0.0040
1664.00,0.0039
1663.00,0.0039
1662.00,0.0039
1661.00,0.0038
1660.00,0.0038
1659.00,0.0038
1658.00,0.0037
1657.00,0.0037
1656.00,0.0037
1655.00,0.0037
1654.00,0.0035
1653.00,0.0034
1652.00,0.0033
1651.00,0.0033
1650.00,0.0033
1649.00,0.0032
1648.00,0.0032
1647.00,0.0032
1646.00,0.0032
1645.00,0.0031
1644.00,0.0031
1643.00,0.0031
1642.00,0.0031
1641.00,0.0031
1640.00,0.0031
1639.00,0.0031
1638.00,0.0031
1637.00,0.0031
1636.00,0.0031
1635.00,0.0031
1634.00,0.0031
1633.00,0.0031
1632.00,0.0031
1631.00,0.0032
1630.00,0.0032
1629.00,0.0032
1628.00,0.0033
1627.00,0.0033
1626.00,0.0033
1625.00,0.0033
1624.00,0.0034
1623.00,0.0034
1622.00,0.0034
1621.00,0.0035
1620.00,0.0035
1619.00,0.0036
1618.00,0.0036
1617.00,0.0037
1616.00,0.0039
1615.00,0.0041
1614.00,0.0044
1613.00,0.0047
1612.00,0.0051
1611.00,0.0057
1610.00,0.0065
1609.00,0.0076
1608.00,0.0091
1607.00,0.0110
1606.00,0.0132
1605.00,0.0156
1604.00,0.0181
1603.00,0.0204
1602.00,0.0220
1601.00,0.0225
1600.00,0.0220
1599.00,0.0204
1598.00,0.0183
1597.00,0.0159
1596.00,0.0137
1595.00,0.0119
1594.00,0.0104
1593.00,0.0092
1592.00,0.0084
1591.00,0.0077
1590.00,0.0073
1589.00,0.0070
1588.00,0.0071
1587.00,0.0075
1586.00,0.0082
1585.00,0.0090
1584.00,0.0096
1583.00,0.0098
1582.00,0.0094
1581.00,0.0086
1580.00,0.0076
1579.00,0.0066
1578.00,0.0058
1577.00,0.0051
1576.00,0.0045
1575.00,0.0041
1574.00,0.0038
1573.00,0.0036
1572.00,0.0035
1571.00,0.0033
1570.00,0.0031
1569.00,0.0030
1568.00,0.0029
1567.00,0.0028
1566.00,0.0028
1565.00,0.0027
1564.00,0.0027
1563.00,0.0027
1562.00,0.0027
1561.00,0.0027
1560.00,0.0027
1559.00,0.0027
1558.00,0.0028
1557.00,0.0028
1556.00,0.0029
1555.00,0.0029
1554.00,0.0030
1553.00,0.0031
1552.00,0.0033
1551.00,0.0034
1550.00,0.0035
1549.00,0.0036
1548.00,0.0038
1547.00,0.0039
1546.00,0.0040
1545.00,0.0040
1544.00,0.0041
1543.00,0.0041
1542.00,0.0041
1541.00,0.0040
1540.00,0.0039
1539.00,0.0038
1538.00,0.0037
1537.00,0.0037
1536.00,0.0036
1535.00,0.0035
1534.00,0.0034
1533.00,0.0033
1532.00,0.0032
1531.00,0.0031
1530.00,0.0030
1529.00,0.0030
1528.00,0.0029
1527.00,0.0028
1526.00,0.0028
1525.00,0.0027
1524.00,0.0027
1523.00,0.0027
1522.00,0.0027
1521.00,0.0027
1520.00,0.0027
1519.00,0.0028
1518.00,0.0028
1517.00,0.0028
1516.00,0.0029
1515.00,0.0030
1514.00,0.0031
1513.00,0.0032
1512.00,0.0033
1511.00,0.0034
1510.00,0.0035
1509.00,0.0036
1508.00,0.0037
1507.00,0.0040
1506.00,0.0043
1505.00,0.0047
1504.00,0.0052
1503.00,0.0058
1502.00,0.0067
1501.00,0.0079
1500.00,0.0097
1499.00,0.0125
1498.00,0.0169
1497.00,0.0238
1496.00,0.0328
1495.00,0.0423
1494.00,0.0502
1493.00,0.0551
1492.00,0.0557
1491.00,0.0513
1490.00,0.0430
1489.00,0.0338
1488.00,0.0265
1487.00,0.0213
1486.00,0.0175
1485.00,0.0147
1484.00,0.0126
1483.00,0.0109
1482.00,0.0095
1481.00,0.0085
1480.00,0.0077
1479.00,0.0072
1478.00,0.0068
1477.00,0.0065
1476.00,0.0063
1475.00,0.0061
1474.00,0.0060
1473.00,0.0059
1472.00,0.0059
1471.00,0.0060
1470.00,0.0061
1469.00,0.0062
1468.00,0.0064
1467.00,0.0066
1466.00,0.0067
1465.00,0.0070
1464.00,0.0074
1463.00,0.0079
1462.00,0.0085
1461.00,0.0093
1460.00,0.0105
1459.00,0.0124
1458.00,0.0162
1457.00,0.0230
1456.00,0.0318
1455.00,0.0404
1454.00,0.0478
1453.00,0.0534
1452.00,0.0564
1451.00,0.0561
1450.00,0.0532
1449.00,0.0490
1448.00,0.0444
1447.00,0.0403
1446.00,0.0370
1445.00,0.0343
1444.00,0.0318
1443.00,0.0292
1442.00,0.0268
1441.00,0.0247
1440.00,0.0230
1439.00,0.0214
1438.00,0.0197
1437.00,0.0177
1436.00,0.0156
1435.00,0.0139
1434.00,0.0126
1433.00,0.0116
1432.00,0.0107
1431.00,0.0097
1430.00,0.0089
1429.00,0.0082
1428.00,0.0077
1427.00,0.0072
1426.00,0.0069
1425.00,0.0067
1424.00,0.0064
1423.00,0.0062
1422.00,0.0061
1421.00,0.0060
1420.00,0.0059
1419.00,0.0057
1418.00,0.0056
1417.00,0.0055
1416.00,0.0054
1415.00,0.0053
1414.00,0.0052
1413.00,0.0052
1412.00,0.0051
1411.00,0.0051
1410.00,0.0051
1409.00,0.0050
1408.00,0.0050
1407.00,0.0050
1406.00,0.0049
1405.00,0.0049
1404.00,0.0049
1403.00,0.0049
1402.00,0.0049
1401.00,0.0050
1400.00,0.0050
1399.00,0.0050
1398.00,0.0051
1397.00,0.0052
1396.00,0.0053
1395.00,0.0055
1394.00,0.0056
1393.00,0.0059
1392.00,0.0062
1391.00,0.0065
1390.00,0.0069
1389.00,0.0072
1388.00,0.0076
1387.00,0.0080
1386.00,0.0084
1385.00,0.0088
1384.00,0.0092
1383.00,0.0096
1382.00,0.0100
1381.00,0.0104
1380.00,0.0108
1379.00,0.0111
1378.00,0.0115
1377.00,0.0119
1376.00,0.0122
1375.00,0.0125
1374.00,0.0126
1373.00,0.0127
1372.00,0.0128
1371.00,0.0128
1370.00,0.0128
1369.00,0.0127
1368.00,0.0126
1367.00,0.0126
1366.00,0.0125
1365.00,0.0124
1364.00,0.0123
1363.00,0.0122
1362.00,0.0121
1361.00,0.0119
1360.00,0.0117
1359.00,0.0116
1358.00,0.0114
1357.00,0.0113
1356.00,0.0112
1355.00,0.0110
1354.00,0.0110
1353.00,0.0109
1352.00,0.0109
1351.00,0.0109
1350.00,0.0108
1349.00,0.0108
1348.00,0.0107
1347.00,0.0106
1346.00,0.0105
1345.00,0.0104
1344.00,0.0102
1343.00,0.0100
1342.00,0.0099
1341.00,0.0097
1340.00,0.0096
1339.00,0.0095
1338.00,0.0095
1337.00,0.0095
1336.00,0.0096
1335.00,0.0098
1334.00,0.0100
1333.00,0.0103
1332.00,0.0106
1331.00,0.0108
1330.00,0.0110
1329.00,0.0111
1328.00,0.0111
1327.00,0.0110
1326.00,0.0109
1325.00,0.0108
1324.00,0.0106
1323.00,0.0105
1322.00,0.0104
1321.00,0.0103
1320.00,0.0103
1319.00,0.0103
1318.00,0.0103
1317.00,0.0104
1316.00,0.0105
1315.00,0.0107
1314.00,0.0108
1313.00,0.0108
1312.00,0.0109
1311.00,0.0108
1310.00,0.0107
1309.00,0.0106
1308.00,0.0105
1307.00,0.0103
1306.00,0.0101
1305.00,0.0099
1304.00,0.0098
1303.00,0.0096
1302.00,0.0094
1301.00,0.0092
1300.00,0.0091
1299.00,0.0090
1298.00,0.0089
1297.00,0.0088
1296.00,0.0087
1295.00,0.0087
1294.00,0.0087
1293.00,0.0086
1292.00,0.0086
1291.00,0.0085
1290.00,0.0084
1289.00,0.0084
1288.00,0.0083
1287.00,0.0082
1286.00,0.0081
1285.00,0.0081
1284.00,0.0081
1283.00,0.0081
1282.00,0.0080
1281.00,0.0080
1280.00,0.0079
1279.00,0.0078
1278.00,0.0076
1277.00,0.0075
1276.00,0.0073
1275.00,0.0071
1274.00,0.0070
1273.00,0.0068
1272.00,0.0067
1271.00,0.0066
1270.00,0.0064
1269.00,0.0063
1268.00,0.0062
1267.00,0.0061
1266.00,0.0061
1265.00,0.0060
1264.00,0.0060
1263.00,0.0059
1262.00,0.0059
1261.00,0.0058
1260.00,0.0058
1259.00,0.0058
1258.00,0.0058
1257.00,0.0058
1256.00,0.0058
1255.00,0.0058
1254.00,0.0058
1253.00,0.0059
1252.00,0.0059
1251.00,0.0060
1250.00,0.0060
1249.00,0.0060
1248.00,0.0061
1247.00,0.0061
1246.00,0.0061
1245.00,0.0061
1244.00,0.0062
1243.00,0.0062
1242.00,0.0061
1241.00,0.0061
1240.00,0.0061
1239.00,0.0061
1238.00,0.0061
1237.00,0.0061
1236.00,0.0061
1235.00,0.0060
1234.00,0.0060
1233.00,0.0060
1232.00,0.0061
1231.00,0.0061
1230.00,0.0061
1229.00,0.0062
1228.00,0.0062
1227.00,0.0062
1226.00,0.0062
1225.00,0.0063
1224.00,0.0063
1223.00,0.0063
1222.00,0.0063
1221.00,0.0063
1220.00,0.0064
1219.00,0.0064
1218.00,0.0064
1217.00,0.0064
1216.00,0.0065
1215.00,0.0065
1214.00,0.0066
1213.00,0.0067
1212.00,0.0068
1211.00,0.0069
1210.00,0.0071
1209.00,0.0072
1208.00,0.0074
1207.00,0.0076
1206.00,0.0078
1205.00,0.0080
1204.00,0.0082
1203.00,0.0085
1202.00,0.0087
1201.00,0.0089
1200.00,0.0091
1199.00,0.0093
1198.00,0.0094
1197.00,0.0095
1196.00,0.0096
1195.00,0.0096
1194.00,0.0097
1193.00,0.0097
1192.00,0.0097
1191.00,0.0098
1190.00,0.0098
1189.00,0.0099
1188.00,0.0102
1187.00,0.0105
1186.00,0.0110
1185.00,0.0115
1184.00,0.0121
1183.00,0.0127
1182.00,0.0130
1181.00,0.0131
1180.00,0.0128
1179.00,0.0122
1178.00,0.0114
1177.00,0.0106
1176.00,0.0098
1175.00,0.0092
1174.00,0.0087
1173.00,0.0084
1172.00,0.0081
1171.00,0.0080
1170.00,0.0078
1169.00,0.0078
1168.00,0.0077
1167.00,0.0077
1166.00,0.0077
1165.00,0.0077
1164.00,0.0079
1163.00,0.0081
1162.00,0.0084
1161.00,0.0088
1160.00,0.0094
1159.00,0.0102
1158.00,0.0110
1157.00,0.0119
1156.00,0.0126
1155.00,0.0130
1154.00,0.0130
1153.00,0.0125
1152.00,0.0118
1151.00,0.0108
1150.00,0.0097
1149.00,0.0088
1148.00,0.0081
1147.00,0.0076
1146.00,0.0071
1145.00,0.0068
1144.00,0.0065
1143.00,0.0063
1142.00,0.0061
1141.00,0.0059
1140.00,0.0058
1139.00,0.0057
1138.00,0.0056
1137.00,0.0055
1136.00,0.0055
1135.00,0.0055
1134.00,0.0055
1133.00,0.0055
1132.00,0.0055
1131.00,0.0055
1130.00,0.0054
1129.00,0.0054
1128.00,0.0055
1127.00,0.0056
1126.00,0.0056
1125.00,0.0057
1124.00,0.0058
1123.00,0.0059
1122.00,0.0059
1121.00,0.0061
1120.00,0.0063
1119.00,0.0065
1118.00,0.0067
1117.00,0.0069
1116.00,0.0072
1115.00,0.0074
1114.00,0.0075
1113.00,0.0076
1112.00,0.0077
1111.00,0.0077
1110.00,0.0076
1109.00,0.0076
1108.00,0.0075
1107.00,0.0075
1106.00,0.0074
1105.00,0.0074
1104.00,0.0074
1103.00,0.0075
1102.00,0.0076
1101.00,0.0077
1100.00,0.0078
1099.00,0.0079
1098.00,0.0080
1097.00,0.0081
1096.00,0.0082
1095.00,0.0083
1094.00,0.0084
1093.00,0.0085
1092.00,0.0087
1091.00,0.0089
1090.00,0.0090
1089.00,0.0092
1088.00,0.0093
1087.00,0.0095
1086.00,0.0098
1085.00,0.0101
1084.00,0.0105
1083.00,0.0109
1082.00,0.0113
1081.00,0.0117
1080.00,0.0122
1079.00,0.0126
1078.00,0.0130
1077.00,0.0135
1076.00,0.0141
1075.00,0.0148
1074.00,0.0155
1073.00,0.0162
1072.00,0.0169
1071.00,0.0175
1070.00,0.0178
1069.00,0.0180
1068.00,0.0179
1067.00,0.0177
1066.00,0.0172
1065.00,0.0166
1064.00,0.0159
1063.00,0.0152
1062.00,0.0145
1061.00,0.0139
1060.00,0.0134
1059.00,0.0129
1058.00,0.0125
1057.00,0.0121
1056.00,0.0118
1055.00,0.0115
1054.00,0.0112
1053.00,0.0109
1052.00,0.0107
1051.00,0.0104
1050.00,0.0102
1049.00,0.0101
1048.00,0.0099
1047.00,0.0098
1046.00,0.0097
1045.00,0.0096
1044.00,0.0096
1043.00,0.0096
1042.00,0.0096
1041.00,0.0097
1040.00,0.0100
1039.00,0.0105
1038.00,0.0112
1037.00,0.0122
1036.00,0.0138
1035.00,0.0159
1034.00,0.0183
1033.00,0.0211
1032.00,0.0240
1031.00,0.0267
1030.00,0.0288
1029.00,0.0302
1028.00,0.0309
1027.00,0.0305
1026.00,0.0291
1025.00,0.0272
1024.00,0.0251
1023.00,0.0231
1022.00,0.0213
1021.00,0.0198
1020.00,0.0186
1019.00,0.0176
1018.00,0.0166
1017.00,0.0158
1016.00,0.0152
1015.00,0.0146
1014.00,0.0141
1013.00,0.0136
1012.00,0.0133
1011.00,0.0130
1010.00,0.0127
1009.00,0.0126
1008.00,0.0126
1007.00,0.0127
1006.00,0.0130
1005.00,0.0133
1004.00,0.0136
1003.00,0.0137
1002.00,0.0134
1001.00,0.0128
1000.00,0.0120
999.00,0.0113
998.00,0.0106
997.00,0.0102
996.00,0.0100
995.00,0.0099
994.00,0.0098
993.00,0.0098
992.00,0.0098
991.00,0.0099
990.00,0.0099
989.00,0.0101
988.00,0.0104
987.00,0.0107
986.00,0.0110
985.00,0.0114
984.00,0.0117
983.00,0.0120
982.00,0.0122
981.00,0.0123
980.00,0.0124
979.00,0.0123
978.00,0.0122
977.00,0.0119
976.00,0.0117
975.00,0.0115
974.00,0.0113
973.00,0.0112
972.00,0.0113
971.00,0.0115
970.00,0.0117
969.00,0.0121
968.00,0.0125
967.00,0.0129
966.00,0.0132
965.00,0.0134
964.00,0.0135
963.00,0.0133
962.00,0.0130
961.00,0.0125
960.00,0.0120
959.00,0.0114
958.00,0.0109
957.00,0.0104
956.00,0.0101
955.00,0.0099
954.00,0.0098
953.00,0.0097
952.00,0.0097
951.00,0.0098
950.00,0.0099
949.00,0.0100
948.00,0.0103
947.00,0.0105
946.00,0.0106
945.00,0.0107
944.00,0.0108
943.00,0.0109
942.00,0.0107
941.00,0.0106
940.00,0.0104
939.00,0.0102
938.00,0.0099
937.00,0.0096
936.00,0.0093
935.00,0.0090
934.00,0.0087
933.00,0.0084
932.00,0.0082
931.00,0.0080
930.00,0.0079
929.00,0.0078
928.00,0.0078
927.00,0.0078
926.00,0.0078
925.00,0.0079
924.00,0.0081
923.00,0.0083
922.00,0.0084
921.00,0.0087
920.00,0.0090
919.00,0.0095
918.00,0.0100
917.00,0.0106
916.00,0.0114
915.00,0.0124
914.00,0.0135
913.00,0.0147
912.00,0.0161
911.00,0.0176
910.00,0.0189
909.00,0.0202
908.00,0.0212
907.00,0.0217
906.00,0.0217
905.00,0.0213
904.00,0.0204
903.00,0.0192
902.00,0.0177
901.00,0.0161
900.00,0.0146
899.00,0.0132
898.00,0.0119
897.00,0.0108
896.00,0.0100
895.00,0.0094
894.00,0.0089
893.00,0.0085
892.00,0.0082
891.00,0.0078
890.00,0.0075
889.00,0.0073
888.00,0.0071
887.00,0.0069
886.00,0.0068
885.00,0.0066
884.00,0.0065
883.00,0.0064
882.00,0.0063
881.00,0.0061
880.00,0.0061
879.00,0.0061
878.00,0.0060
877.00,0.0059
876.00,0.0059
875.00,0.0058
874.00,0.0057
873.00,0.0056
872.00,0.0056
871.00,0.0056
870.00,0.0056
869.00,0.0056
868.00,0.0056
867.00,0.0055
866.00,0.0055
865.00,0.0055
864.00,0.0055
863.00,0.0055
862.00,0.0055
861.00,0.0054
860.00,0.0055
859.00,0.0055
858.00,0.0056
857.00,0.0057
856.00,0.0058
855.00,0.0060
854.00,0.0062
853.00,0.0064
852.00,0.0067
851.00,0.0071
850.00,0.0076
849.00,0.0082
848.00,0.0088
847.00,0.0095
846.00,0.0101
845.00,0.0106
844.00,0.0111
843.00,0.0114
842.00,0.0115
841.00,0.0115
840.00,0.0113
839.00,0.0110
838.00,0.0104
837.00,0.0097
836.00,0.0090
835.00,0.0082
834.00,0.0075
833.00,0.0069
832.00,0.0065
831.00,0.0062
830.00,0.0059
829.00,0.0057
828.00,0.0056
827.00,0.0055
826.00,0.0054
825.00,0.0053
824.00,0.0052
823.00,0.0052
822.00,0.0051
821.00,0.0051
820.00,0.0052
819.00,0.0053
818.00,0.0053
817.00,0.0053
816.00,0.0054
815.00,0.0054
814.00,0.0054
813.00,0.0054
812.00,0.0054
811.00,0.0054
810.00,0.0054
809.00,0.0054
808.00,0.0055
807.00,0.0056
806.00,0.0057
805.00,0.0057
804.00,0.0058
803.00,0.0059
802.00,0.0060
801.00,0.0061
800.00,0.0064
799.00,0.0066
798.00,0.0069
797.00,0.0072
796.00,0.0076
795.00,0.0080
794.00,0.0083
793.00,0.0088
792.00,0.0093
791.00,0.0099
790.00,0.0105
789.00,0.0111
788.00,0.0118
787.00,0.0125
786.00,0.0132
785.00,0.0140
784.00,0.0149
783.00,0.0159
782.00,0.0170
781.00,0.0182
780.00,0.0196
779.00,0.0213
778.00,0.0230
777.00,0.0251
776.00,0.0275
775.00,0.0300
774.00,0.0328
773.00,0.0357
772.00,0.0390
771.00,0.0426
770.00,0.0462
769.00,0.0499
768.00,0.0536
767.00,0.0573
766.00,0.0609
765.00,0.0644
764.00,0.0681
763.00,0.0718
762.00,0.0755
761.00,0.0793
760.00,0.0830
759.00,0.0864
758.00,0.0893
757.00,0.0915
756.00,0.0930
755.00,0.0938
754.00,0.0938
753.00,0.0935
752.00,0.0932
751.00,0.0930
750.00,0.0929
749.00,0.0927
748.00,0.0923
747.00,0.0911
746.00,0.0885
745.00,0.0846
744.00,0.0794
743.00,0.0733
742.00,0.0669
741.00,0.0605
740.00,0.0547
739.00,0.0492
738.00,0.0442
737.00,0.0395
736.00,0.0351
735.00,0.0310
734.00,0.0270
733.00,0.0234
732.00,0.0204
731.00,0.0179
730.00,0.0159
729.00,0.0143
728.00,0.0133
727.00,0.0125
726.00,0.0119
725.00,0.0114
724.00,0.0112
723.00,0.0111
722.00,0.0111
721.00,0.0111
720.00,0.0113
719.00,0.0115
718.00,0.0118
717.00,0.0122
716.00,0.0131
715.00,0.0142
714.00,0.0156
713.00,0.0177
712.00,0.0208
711.00,0.0250
710.00,0.0306
709.00,0.0381
708.00,0.0476
707.00,0.0594
706.00,0.0735
705.00,0.0901
704.00,0.1091
703.00,0.1304
702.00,0.1538
701.00,0.1788
700.00,0.2051
699.00,0.2317
698.00,0.2578
697.00,0.2815
696.00,0.2992
695.00,0.3063
694.00,0.2994
693.00,0.2788
692.00,0.2488
691.00,0.2157
690.00,0.1844
689.00,0.1575
688.00,0.1357
687.00,0.1184
686.00,0.1047
685.00,0.0938
684.00,0.0851
683.00,0.0778
682.00,0.0715
681.00,0.0662
680.00,0.0617
679.00,0.0579
678.00,0.0545
677.00,0.0516
676.00,0.0492
675.00,0.0471
674.00,0.0452
673.00,0.0434
672.00,0.0420
671.00,0.0407
670.00,0.0394
669.00,0.0379
668.00,0.0363
667.00,0.0348
666.00,0.0335
665.00,0.0324
664.00,0.0313
663.00,0.0302
662.00,0.0289
661.00,0.0276
660.00,0.0265
659.00,0.0253
658.00,0.0242
657.00,0.0231
656.00,0.0223
655.00,0.0215
654.00,0.0206
653.00,0.0198
652.00,0.0192
651.00,0.0185
650.00,0.0177
649.00,0.0171
648.00,0.0167
647.00,0.0163
646.00,0.0159
645.00,0.0156
644.00,0.0154
643.00,0.0153
642.00,0.0151
641.00,0.0150
640.00,0.0151
639.00,0.0153
638.00,0.0156
637.00,0.0160
636.00,0.0165
635.00,0.0169
634.00,0.0173
633.00,0.0176
632.00,0.0179
631.00,0.0183
630.00,0.0185
629.00,0.0188
628.00,0.0191
627.00,0.0194
626.00,0.0196
625.00,0.0197
624.00,0.0200
623.00,0.0205
622.00,0.0209
621.00,0.0211
620.00,0.0212
619.00,0.0208
618.00,0.0200
617.00,0.0193
616.00,0.0189
615.00,0.0188
614.00,0.0185
613.00,0.0183
612.00,0.0179
611.00,0.0176
610.00,0.0172
609.00,0.0169
608.00,0.0167
607.00,0.0166
606.00,0.0164
605.00,0.0162
604.00,0.0163
603.00,0.0164
602.00,0.0165
601.00,0.0166
600.00,0.0169
599.00,0.0171
598.00,0.0172
597.00,0.0173
596.00,0.0176
595.00,0.0180
594.00,0.0182
593.00,0.0184
592.00,0.0187
591.00,0.0190
590.00,0.0192
589.00,0.0195
588.00,0.0198
587.00,0.0201
586.00,0.0203
585.00,0.0205
584.00,0.0210
583.00,0.0216
582.00,0.0223
581.00,0.0230
580.00,0.0239
579.00,0.0247
578.00,0.0255
577.00,0.0266
576.00,0.0280
575.00,0.0295
574.00,0.0308
573.00,0.0320
572.00,0.0333
571.00,0.0346
570.00,0.0358
569.00,0.0371
568.00,0.0386
567.00,0.0401
566.00,0.0413
565.00,0.0424
564.00,0.0438
563.00,0.0452
562.00,0.0464
561.00,0.0475
560.00,0.0489
559.00,0.0502
558.00,0.0513
557.00,0.0526
556.00,0.0541
555.00,0.0556
554.00,0.0570
553.00,0.0585
552.00,0.0604
551.00,0.0624
550.00,0.0643
549.00,0.0664
548.00,0.0690
547.00,0.0718
546.00,0.0746
545.00,0.0777
544.00,0.0812
543.00,0.0847
542.00,0.0877
541.00,0.0904
540.00,0.0929
539.00,0.0945
538.00,0.0950
537.00,0.0945
536.00,0.0930
535.00,0.0904
534.00,0.0865
533.00,0.0822
532.00,0.0778
531.00,0.0731
530.00,0.0681
529.00,0.0634
528.00,0.0593
527.00,0.0555
526.00,0.0516
525.00,0.0483
524.00,0.0456
523.00,0.0432
522.00,0.0408
521.00,0.0387
520.00,0.0371
519.00,0.0357
518.00,0.0341
517.00,0.0328
516.00,0.0319
515.00,0.0312
514.00,0.0302
513.00,0.0294
512.00,0.0288
511.00,0.0280
510.00,0.0270
509.00,0.0260
508.00,0.0252
507.00,0.0244
506.00,0.0234
505.00,0.0227
504.00,0.0223
503.00,0.0218
502.00,0.0211
501.00,0.0205
500.00,0.0203
499.00,0.0201
498.00,0.0196
497.00,0.0191
496.00,0.0188
495.00,0.0185
494.00,0.0179
493.00,0.0175
492.00,0.0174
491.00,0.0174
490.00,0.0170
489.00,0.0167
488.00,0.0166
487.00,0.0165
486.00,0.0161
485.00,0.0157
484.00,0.0158
483.00,0.0158
482.00,0.0155
481.00,0.0153
480.00,0.0154
479.00,0.0154
478.00,0.0148
477.00,0.0143
476.00,0.0143
475.00,0.0144
474.00,0.0141
473.00,0.0139
472.00,0.0141
471.00,0.0142
470.00,0.0140
469.00,0.0137
468.00,0.0138
467.00,0.0139
466.00,0.0136
465.00,0.0134
464.00,0.0137
463.00,0.0138
462.00,0.0134
461.00,0.0131
460.00,0.0134
459.00,0.0136
458.00,0.0132
457.00,0.0128
456.00,0.0128
455.00,0.0127
454.00,0.0123
453.00,0.0120
452.00,0.0124
451.00,0.0126
450.00,0.0124
449.00,0.0121
448.00,0.0122
447.00,0.0120
446.00,0.0113
445.00,0.0108
444.00,0.0111
443.00,0.0115
442.00,0.0114
441.00,0.0113
440.00,0.0116
439.00,0.0117
438.00,0.0113
437.00,0.0110
436.00,0.0115
435.00,0.0119
434.00,0.0116
433.00,0.0113
432.00,0.0117
431.00,0.0120
430.00,0.0115
429.00,0.0110
428.00,0.0109
427.00,0.0110
426.00,0.0106
425.00,0.0105
424.00,0.0112
423.00,0.0117
422.00,0.0110
421.00,0.0102
420.00,0.0102
419.00,0.0101
418.00,0.0090
417.00,0.0084
416.00,0.0092
415.00,0.0099
414.00,0.0097
413.00,0.0094
412.00,0.0102
411.00,0.0109
410.00,0.0107
409.00,0.0107
408.00,0.0117
407.00,0.0126
406.00,0.0120
405.00,0.0115
404.00,0.0122
403.00,0.0126
402.00,0.0113
401.00,0.0101
400.00,0.0108
