Created as New Dataset,Sample 114 By YargerLab Date Friday, August 15 2025
cm-1,A
4000.00,0.0017
3999.00,0.0017
3998.00,0.0017
3997.00,0.0017
3996.00,0.0017
3995.00,0.0017
3994.00,0.0017
3993.00,0.0017
3992.00,0.0017
3991.00,0.0017
3990.00,0.0017
3989.00,0.0017
3988.00,0.0017
3987.00,0.0017
3986.00,0.0016
3985.00,0.0016
3984.00,0.0016
3983.00,0.0016
3982.00,0.0016
3981.00,0.0016
3980.00,0.0016
3979.00,0.0016
3978.00,0.0016
3977.00,0.0016
3976.00,0.0016
3975.00,0.0016
3974.00,0.0016
3973.00,0.0016
3972.00,0.0016
3971.00,0.0016
3970.00,0.0016
3969.00,0.0016
3968.00,0.0016
3967.00,0.0016
3966.00,0.0016
3965.00,0.0016
3964.00,0.0016
3963.00,0.0016
3962.00,0.0016
3961.00,0.0016
3960.00,0.0016
3959.00,0.0016
3958.00,0.0016
3957.00,0.0016
3956.00,0.0016
3955.00,0.0016
3954.00,0.0016
3953.00,0.0016
3952.00,0.0016
3951.00,0.0016
3950.00,0.0015
3949.00,0.0015
3948.00,0.0016
3947.00,0.0016
3946.00,0.0016
3945.00,0.0016
3944.00,0.0016
3943.00,0.0016
3942.00,0.0016
3941.00,0.0016
3940.00,0.0016
3939.00,0.0016
3938.00,0.0016
3937.00,0.0016
3936.00,0.0016
3935.00,0.0016
3934.00,0.0016
3933.00,0.0016
3932.00,0.0016
3931.00,0.0016
3930.00,0.0016
3929.00,0.0016
3928.00,0.0016
3927.00,0.0016
3926.00,0.0016
3925.00,0.0016
3924.00,0.0016
3923.00,0.0016
3922.00,0.0016
3921.00,0.0016
3920.00,0.0016
3919.00,0.0016
3918.00,0.0016
3917.00,0.0016
3916.00,0.0015
3915.00,0.0015
3914.00,0.0015
3913.00,0.0016
3912.00,0.0016
3911.00,0.0016
3910.00,0.0016
3909.00,0.0016
3908.00,0.0016
3907.00,0.0016
3906.00,0.0016
3905.00,0.0016
3904.00,0.0016
3903.00,0.0016
3902.00,0.0016
3901.00,0.0016
3900.00,0.0016
3899.00,0.0016
3898.00,0.0016
3897.00,0.0016
3896.00,0.0016
3895.00,0.0016
3894.00,0.0016
3893.00,0.0016
3892.00,0.0016
3891.00,0.0016
3890.00,0.0016
3889.00,0.0015
3888.00,0.0015
3887.00,0.0015
3886.00,0.0015
3885.00,0.0016
3884.00,0.0016
3883.00,0.0016
3882.00,0.0016
3881.00,0.0016
3880.00,0.0016
3879.00,0.0016
3878.00,0.0016
3877.00,0.0016
3876.00,0.0015
3875.00,0.0016
3874.00,0.0016
3873.00,0.0016
3872.00,0.0016
3871.00,0.0016
3870.00,0.0016
3869.00,0.0016
3868.00,0.0016
3867.00,0.0016
3866.00,0.0016
3865.00,0.0016
3864.00,0.0016
3863.00,0.0016
3862.00,0.0016
3861.00,0.0016
3860.00,0.0016
3859.00,0.0016
3858.00,0.0016
3857.00,0.0016
3856.00,0.0016
3855.00,0.0016
3854.00,0.0016
3853.00,0.0016
3852.00,0.0016
3851.00,0.0017
3850.00,0.0017
3849.00,0.0017
3848.00,0.0017
3847.00,0.0017
3846.00,0.0016
3845.00,0.0016
3844.00,0.0016
3843.00,0.0016
3842.00,0.0016
3841.00,0.0015
3840.00,0.0015
3839.00,0.0015
3838.00,0.0015
3837.00,0.0015
3836.00,0.0016
3835.00,0.0016
3834.00,0.0017
3833.00,0.0017
3832.00,0.0016
3831.00,0.0016
3830.00,0.0016
3829.00,0.0016
3828.00,0.0016
3827.00,0.0016
3826.00,0.0016
3825.00,0.0016
3824.00,0.0016
3823.00,0.0016
3822.00,0.0016
3821.00,0.0016
3820.00,0.0016
3819.00,0.0016
3818.00,0.0016
3817.00,0.0016
3816.00,0.0016
3815.00,0.0016
3814.00,0.0016
3813.00,0.0016
3812.00,0.0016
3811.00,0.0016
3810.00,0.0016
3809.00,0.0016
3808.00,0.0016
3807.00,0.0016
3806.00,0.0016
3805.00,0.0016
3804.00,0.0016
3803.00,0.0017
3802.00,0.0016
3801.00,0.0016
3800.00,0.0016
3799.00,0.0016
3798.00,0.0016
3797.00,0.0016
3796.00,0.0016
3795.00,0.0016
3794.00,0.0015
3793.00,0.0015
3792.00,0.0015
3791.00,0.0015
3790.00,0.0015
3789.00,0.0015
3788.00,0.0015
3787.00,0.0015
3786.00,0.0015
3785.00,0.0015
3784.00,0.0015
3783.00,0.0015
3782.00,0.0015
3781.00,0.0015
3780.00,0.0015
3779.00,0.0015
3778.00,0.0015
3777.00,0.0015
3776.00,0.0014
3775.00,0.0015
3774.00,0.0015
3773.00,0.0015
3772.00,0.0016
3771.00,0.0016
3770.00,0.0016
3769.00,0.0015
3768.00,0.0015
3767.00,0.0015
3766.00,0.0016
3765.00,0.0016
3764.00,0.0015
3763.00,0.0015
3762.00,0.0015
3761.00,0.0015
3760.00,0.0015
3759.00,0.0015
3758.00,0.0015
3757.00,0.0015
3756.00,0.0015
3755.00,0.0015
3754.00,0.0015
3753.00,0.0016
3752.00,0.0016
3751.00,0.0016
3750.00,0.0016
3749.00,0.0016
3748.00,0.0016
3747.00,0.0016
3746.00,0.0016
3745.00,0.0016
3744.00,0.0016
3743.00,0.0016
3742.00,0.0016
3741.00,0.0016
3740.00,0.0015
3739.00,0.0015
3738.00,0.0015
3737.00,0.0015
3736.00,0.0015
3735.00,0.0015
3734.00,0.0015
3733.00,0.0015
3732.00,0.0015
3731.00,0.0015
3730.00,0.0015
3729.00,0.0015
3728.00,0.0015
3727.00,0.0015
3726.00,0.0015
3725.00,0.0015
3724.00,0.0015
3723.00,0.0015
3722.00,0.0014
3721.00,0.0014
3720.00,0.0014
3719.00,0.0015
3718.00,0.0015
3717.00,0.0015
3716.00,0.0015
3715.00,0.0015
3714.00,0.0015
3713.00,0.0015
3712.00,0.0014
3711.00,0.0014
3710.00,0.0014
3709.00,0.0014
3708.00,0.0015
3707.00,0.0015
3706.00,0.0015
3705.00,0.0015
3704.00,0.0015
3703.00,0.0015
3702.00,0.0015
3701.00,0.0015
3700.00,0.0015
3699.00,0.0015
3698.00,0.0015
3697.00,0.0014
3696.00,0.0014
3695.00,0.0014
3694.00,0.0014
3693.00,0.0015
3692.00,0.0015
3691.00,0.0015
3690.00,0.0015
3689.00,0.0015
3688.00,0.0015
3687.00,0.0015
3686.00,0.0015
3685.00,0.0015
3684.00,0.0015
3683.00,0.0015
3682.00,0.0016
3681.00,0.0016
3680.00,0.0016
3679.00,0.0016
3678.00,0.0016
3677.00,0.0016
3676.00,0.0017
3675.00,0.0017
3674.00,0.0017
3673.00,0.0017
3672.00,0.0017
3671.00,0.0017
3670.00,0.0016
3669.00,0.0016
3668.00,0.0016
3667.00,0.0016
3666.00,0.0016
3665.00,0.0016
3664.00,0.0016
3663.00,0.0015
3662.00,0.0015
3661.00,0.0015
3660.00,0.0015
3659.00,0.0015
3658.00,0.0015
3657.00,0.0015
3656.00,0.0016
3655.00,0.0016
3654.00,0.0017
3653.00,0.0017
3652.00,0.0017
3651.00,0.0017
3650.00,0.0017
3649.00,0.0018
3648.00,0.0017
3647.00,0.0017
3646.00,0.0017
3645.00,0.0017
3644.00,0.0016
3643.00,0.0016
3642.00,0.0016
3641.00,0.0016
3640.00,0.0016
3639.00,0.0016
3638.00,0.0016
3637.00,0.0016
3636.00,0.0016
3635.00,0.0016
3634.00,0.0016
3633.00,0.0016
3632.00,0.0016
3631.00,0.0016
3630.00,0.0016
3629.00,0.0016
3628.00,0.0016
3627.00,0.0016
3626.00,0.0017
3625.00,0.0017
3624.00,0.0017
3623.00,0.0017
3622.00,0.0017
3621.00,0.0017
3620.00,0.0017
3619.00,0.0017
3618.00,0.0017
3617.00,0.0017
3616.00,0.0017
3615.00,0.0017
3614.00,0.0017
3613.00,0.0017
3612.00,0.0017
3611.00,0.0017
3610.00,0.0017
3609.00,0.0017
3608.00,0.0017
3607.00,0.0017
3606.00,0.0017
3605.00,0.0017
3604.00,0.0017
3603.00,0.0017
3602.00,0.0017
3601.00,0.0017
3600.00,0.0017
3599.00,0.0018
3598.00,0.0018
3597.00,0.0018
3596.00,0.0018
3595.00,0.0018
3594.00,0.0018
3593.00,0.0018
3592.00,0.0018
3591.00,0.0018
3590.00,0.0018
3589.00,0.0018
3588.00,0.0018
3587.00,0.0018
3586.00,0.0018
3585.00,0.0018
3584.00,0.0018
3583.00,0.0018
3582.00,0.0018
3581.00,0.0019
3580.00,0.0019
3579.00,0.0019
3578.00,0.0019
3577.00,0.0019
3576.00,0.0019
3575.00,0.0019
3574.00,0.0019
3573.00,0.0019
3572.00,0.0019
3571.00,0.0019
3570.00,0.0019
3569.00,0.0019
3568.00,0.0019
3567.00,0.0019
3566.00,0.0019
3565.00,0.0020
3564.00,0.0020
3563.00,0.0020
3562.00,0.0020
3561.00,0.0020
3560.00,0.0020
3559.00,0.0021
3558.00,0.0021
3557.00,0.0021
3556.00,0.0021
3555.00,0.0021
3554.00,0.0021
3553.00,0.0021
3552.00,0.0021
3551.00,0.0021
3550.00,0.0021
3549.00,0.0021
3548.00,0.0021
3547.00,0.0021
3546.00,0.0021
3545.00,0.0021
3544.00,0.0021
3543.00,0.0021
3542.00,0.0021
3541.00,0.0021
3540.00,0.0022
3539.00,0.0022
3538.00,0.0022
3537.00,0.0022
3536.00,0.0022
3535.00,0.0022
3534.00,0.0023
3533.00,0.0023
3532.00,0.0023
3531.00,0.0023
3530.00,0.0023
3529.00,0.0023
3528.00,0.0023
3527.00,0.0023
3526.00,0.0023
3525.00,0.0023
3524.00,0.0023
3523.00,0.0023
3522.00,0.0024
3521.00,0.0024
3520.00,0.0024
3519.00,0.0024
3518.00,0.0024
3517.00,0.0024
3516.00,0.0024
3515.00,0.0024
3514.00,0.0024
3513.00,0.0024
3512.00,0.0024
3511.00,0.0025
3510.00,0.0025
3509.00,0.0025
3508.00,0.0025
3507.00,0.0024
3506.00,0.0024
3505.00,0.0025
3504.00,0.0025
3503.00,0.0025
3502.00,0.0025
3501.00,0.0025
3500.00,0.0026
3499.00,0.0026
3498.00,0.0025
3497.00,0.0025
3496.00,0.0025
3495.00,0.0025
3494.00,0.0026
3493.00,0.0026
3492.00,0.0026
3491.00,0.0026
3490.00,0.0026
3489.00,0.0026
3488.00,0.0026
3487.00,0.0026
3486.00,0.0026
3485.00,0.0026
3484.00,0.0026
3483.00,0.0026
3482.00,0.0026
3481.00,0.0026
3480.00,0.0026
3479.00,0.0026
3478.00,0.0027
3477.00,0.0027
3476.00,0.0027
3475.00,0.0027
3474.00,0.0027
3473.00,0.0028
3472.00,0.0028
3471.00,0.0028
3470.00,0.0028
3469.00,0.0028
3468.00,0.0028
3467.00,0.0028
3466.00,0.0028
3465.00,0.0028
3464.00,0.0027
3463.00,0.0027
3462.00,0.0028
3461.00,0.0028
3460.00,0.0028
3459.00,0.0028
3458.00,0.0028
3457.00,0.0028
3456.00,0.0028
3455.00,0.0028
3454.00,0.0028
3453.00,0.0028
3452.00,0.0028
3451.00,0.0028
3450.00,0.0028
3449.00,0.0028
3448.00,0.0028
3447.00,0.0028
3446.00,0.0029
3445.00,0.0029
3444.00,0.0029
3443.00,0.0029
3442.00,0.0028
3441.00,0.0028
3440.00,0.0028
3439.00,0.0028
3438.00,0.0028
3437.00,0.0028
3436.00,0.0029
3435.00,0.0028
3434.00,0.0028
3433.00,0.0028
3432.00,0.0028
3431.00,0.0028
3430.00,0.0028
3429.00,0.0028
3428.00,0.0028
3427.00,0.0028
3426.00,0.0028
3425.00,0.0028
3424.00,0.0028
3423.00,0.0028
3422.00,0.0028
3421.00,0.0028
3420.00,0.0028
3419.00,0.0028
3418.00,0.0028
3417.00,0.0028
3416.00,0.0028
3415.00,0.0028
3414.00,0.0028
3413.00,0.0028
3412.00,0.0028
3411.00,0.0028
3410.00,0.0028
3409.00,0.0028
3408.00,0.0028
3407.00,0.0028
3406.00,0.0028
3405.00,0.0028
3404.00,0.0028
3403.00,0.0028
3402.00,0.0028
3401.00,0.0027
3400.00,0.0027
3399.00,0.0028
3398.00,0.0028
3397.00,0.0028
3396.00,0.0028
3395.00,0.0028
3394.00,0.0028
3393.00,0.0028
3392.00,0.0028
3391.00,0.0028
3390.00,0.0028
3389.00,0.0028
3388.00,0.0028
3387.00,0.0028
3386.00,0.0028
3385.00,0.0028
3384.00,0.0028
3383.00,0.0028
3382.00,0.0028
3381.00,0.0028
3380.00,0.0028
3379.00,0.0028
3378.00,0.0028
3377.00,0.0027
3376.00,0.0027
3375.00,0.0027
3374.00,0.0027
3373.00,0.0027
3372.00,0.0027
3371.00,0.0027
3370.00,0.0027
3369.00,0.0027
3368.00,0.0027
3367.00,0.0028
3366.00,0.0028
3365.00,0.0028
3364.00,0.0027
3363.00,0.0027
3362.00,0.0027
3361.00,0.0027
3360.00,0.0027
3359.00,0.0027
3358.00,0.0027
3357.00,0.0027
3356.00,0.0027
3355.00,0.0027
3354.00,0.0027
3353.00,0.0027
3352.00,0.0028
3351.00,0.0028
3350.00,0.0027
3349.00,0.0027
3348.00,0.0027
3347.00,0.0027
3346.00,0.0027
3345.00,0.0027
3344.00,0.0027
3343.00,0.0027
3342.00,0.0027
3341.00,0.0027
3340.00,0.0027
3339.00,0.0027
3338.00,0.0027
3337.00,0.0027
3336.00,0.0027
3335.00,0.0027
3334.00,0.0026
3333.00,0.0026
3332.00,0.0026
3331.00,0.0026
3330.00,0.0026
3329.00,0.0026
3328.00,0.0027
3327.00,0.0027
3326.00,0.0027
3325.00,0.0027
3324.00,0.0026
3323.00,0.0026
3322.00,0.0026
3321.00,0.0026
3320.00,0.0025
3319.00,0.0025
3318.00,0.0025
3317.00,0.0025
3316.00,0.0025
3315.00,0.0025
3314.00,0.0025
3313.00,0.0025
3312.00,0.0026
3311.00,0.0026
3310.00,0.0026
3309.00,0.0026
3308.00,0.0026
3307.00,0.0025
3306.00,0.0025
3305.00,0.0025
3304.00,0.0025
3303.00,0.0025
3302.00,0.0025
3301.00,0.0025
3300.00,0.0025
3299.00,0.0025
3298.00,0.0025
3297.00,0.0025
3296.00,0.0025
3295.00,0.0025
3294.00,0.0025
3293.00,0.0025
3292.00,0.0025
3291.00,0.0025
3290.00,0.0025
3289.00,0.0025
3288.00,0.0025
3287.00,0.0025
3286.00,0.0025
3285.00,0.0025
3284.00,0.0025
3283.00,0.0025
3282.00,0.0025
3281.00,0.0025
3280.00,0.0025
3279.00,0.0025
3278.00,0.0025
3277.00,0.0025
3276.00,0.0025
3275.00,0.0025
3274.00,0.0025
3273.00,0.0025
3272.00,0.0025
3271.00,0.0025
3270.00,0.0025
3269.00,0.0025
3268.00,0.0025
3267.00,0.0024
3266.00,0.0024
3265.00,0.0024
3264.00,0.0024
3263.00,0.0024
3262.00,0.0024
3261.00,0.0024
3260.00,0.0024
3259.00,0.0024
3258.00,0.0024
3257.00,0.0024
3256.00,0.0024
3255.00,0.0024
3254.00,0.0024
3253.00,0.0024
3252.00,0.0024
3251.00,0.0024
3250.00,0.0024
3249.00,0.0023
3248.00,0.0023
3247.00,0.0023
3246.00,0.0023
3245.00,0.0023
3244.00,0.0023
3243.00,0.0023
3242.00,0.0023
3241.00,0.0023
3240.00,0.0023
3239.00,0.0023
3238.00,0.0023
3237.00,0.0023
3236.00,0.0023
3235.00,0.0023
3234.00,0.0023
3233.00,0.0023
3232.00,0.0023
3231.00,0.0023
3230.00,0.0023
3229.00,0.0023
3228.00,0.0023
3227.00,0.0023
3226.00,0.0023
3225.00,0.0023
3224.00,0.0023
3223.00,0.0023
3222.00,0.0023
3221.00,0.0023
3220.00,0.0023
3219.00,0.0023
3218.00,0.0022
3217.00,0.0022
3216.00,0.0022
3215.00,0.0022
3214.00,0.0023
3213.00,0.0023
3212.00,0.0023
3211.00,0.0023
3210.00,0.0024
3209.00,0.0024
3208.00,0.0024
3207.00,0.0024
3206.00,0.0024
3205.00,0.0024
3204.00,0.0024
3203.00,0.0024
3202.00,0.0024
3201.00,0.0024
3200.00,0.0024
3199.00,0.0024
3198.00,0.0023
3197.00,0.0023
3196.00,0.0023
3195.00,0.0023
3194.00,0.0023
3193.00,0.0023
3192.00,0.0023
3191.00,0.0023
3190.00,0.0023
3189.00,0.0023
3188.00,0.0023
3187.00,0.0023
3186.00,0.0023
3185.00,0.0022
3184.00,0.0022
3183.00,0.0022
3182.00,0.0021
3181.00,0.0021
3180.00,0.0021
3179.00,0.0021
3178.00,0.0021
3177.00,0.0021
3176.00,0.0021
3175.00,0.0021
3174.00,0.0022
3173.00,0.0022
3172.00,0.0022
3171.00,0.0022
3170.00,0.0022
3169.00,0.0023
3168.00,0.0023
3167.00,0.0023
3166.00,0.0023
3165.00,0.0023
3164.00,0.0023
3163.00,0.0023
3162.00,0.0023
3161.00,0.0023
3160.00,0.0023
3159.00,0.0022
3158.00,0.0022
3157.00,0.0022
3156.00,0.0021
3155.00,0.0021
3154.00,0.0021
3153.00,0.0021
3152.00,0.0021
3151.00,0.0021
3150.00,0.0021
3149.00,0.0020
3148.00,0.0020
3147.00,0.0020
3146.00,0.0020
3145.00,0.0020
3144.00,0.0020
3143.00,0.0020
3142.00,0.0020
3141.00,0.0020
3140.00,0.0020
3139.00,0.0020
3138.00,0.0020
3137.00,0.0020
3136.00,0.0021
3135.00,0.0021
3134.00,0.0021
3133.00,0.0021
3132.00,0.0021
3131.00,0.0021
3130.00,0.0021
3129.00,0.0021
3128.00,0.0021
3127.00,0.0021
3126.00,0.0021
3125.00,0.0021
3124.00,0.0022
3123.00,0.0022
3122.00,0.0022
3121.00,0.0023
3120.00,0.0023
3119.00,0.0024
3118.00,0.0024
3117.00,0.0025
3116.00,0.0026
3115.00,0.0027
3114.00,0.0028
3113.00,0.0029
3112.00,0.0031
3111.00,0.0033
3110.00,0.0036
3109.00,0.0038
3108.00,0.0041
3107.00,0.0043
3106.00,0.0044
3105.00,0.0046
3104.00,0.0046
3103.00,0.0046
3102.00,0.0046
3101.00,0.0045
3100.00,0.0044
3099.00,0.0044
3098.00,0.0043
3097.00,0.0043
3096.00,0.0044
3095.00,0.0045
3094.00,0.0047
3093.00,0.0050
3092.00,0.0054
3091.00,0.0059
3090.00,0.0065
3089.00,0.0072
3088.00,0.0079
3087.00,0.0087
3086.00,0.0095
3085.00,0.0101
3084.00,0.0105
3083.00,0.0107
3082.00,0.0107
3081.00,0.0104
3080.00,0.0099
3079.00,0.0094
3078.00,0.0089
3077.00,0.0085
3076.00,0.0082
3075.00,0.0080
3074.00,0.0079
3073.00,0.0079
3072.00,0.0081
3071.00,0.0084
3070.00,0.0087
3069.00,0.0092
3068.00,0.0099
3067.00,0.0106
3066.00,0.0114
3065.00,0.0123
3064.00,0.0132
3063.00,0.0139
3062.00,0.0145
3061.00,0.0148
3060.00,0.0149
3059.00,0.0146
3058.00,0.0141
3057.00,0.0134
3056.00,0.0125
3055.00,0.0117
3054.00,0.0109
3053.00,0.0101
3052.00,0.0095
3051.00,0.0090
3050.00,0.0085
3049.00,0.0081
3048.00,0.0079
3047.00,0.0077
3046.00,0.0076
3045.00,0.0076
3044.00,0.0077
3043.00,0.0079
3042.00,0.0082
3041.00,0.0086
3040.00,0.0091
3039.00,0.0098
3038.00,0.0105
3037.00,0.0114
3036.00,0.0125
3035.00,0.0138
3034.00,0.0153
3033.00,0.0171
3032.00,0.0191
3031.00,0.0211
3030.00,0.0232
3029.00,0.0252
3028.00,0.0267
3027.00,0.0278
3026.00,0.0283
3025.00,0.0279
3024.00,0.0268
3023.00,0.0251
3022.00,0.0229
3021.00,0.0205
3020.00,0.0181
3019.00,0.0158
3018.00,0.0139
3017.00,0.0123
3016.00,0.0109
3015.00,0.0098
3014.00,0.0090
3013.00,0.0083
3012.00,0.0078
3011.00,0.0075
3010.00,0.0073
3009.00,0.0072
3008.00,0.0073
3007.00,0.0074
3006.00,0.0076
3005.00,0.0079
3004.00,0.0081
3003.00,0.0083
3002.00,0.0084
3001.00,0.0083
3000.00,0.0080
2999.00,0.0076
2998.00,0.0071
2997.00,0.0066
2996.00,0.0061
2995.00,0.0057
2994.00,0.0053
2993.00,0.0051
2992.00,0.0049
2991.00,0.0048
2990.00,0.0047
2989.00,0.0047
2988.00,0.0047
2987.00,0.0047
2986.00,0.0047
2985.00,0.0046
2984.00,0.0046
2983.00,0.0046
2982.00,0.0046
2981.00,0.0046
2980.00,0.0046
2979.00,0.0047
2978.00,0.0048
2977.00,0.0048
2976.00,0.0049
2975.00,0.0050
2974.00,0.0050
2973.00,0.0051
2972.00,0.0052
2971.00,0.0053
2970.00,0.0054
2969.00,0.0055
2968.00,0.0056
2967.00,0.0058
2966.00,0.0060
2965.00,0.0062
2964.00,0.0064
2963.00,0.0066
2962.00,0.0068
2961.00,0.0070
2960.00,0.0073
2959.00,0.0075
2958.00,0.0078
2957.00,0.0081
2956.00,0.0084
2955.00,0.0088
2954.00,0.0091
2953.00,0.0095
2952.00,0.0099
2951.00,0.0104
2950.00,0.0109
2949.00,0.0114
2948.00,0.0120
2947.00,0.0127
2946.00,0.0134
2945.00,0.0141
2944.00,0.0149
2943.00,0.0158
2942.00,0.0167
2941.00,0.0176
2940.00,0.0186
2939.00,0.0197
2938.00,0.0208
2937.00,0.0220
2936.00,0.0232
2935.00,0.0245
2934.00,0.0257
2933.00,0.0270
2932.00,0.0282
2931.00,0.0294
2930.00,0.0305
2929.00,0.0315
2928.00,0.0324
2927.00,0.0332
2926.00,0.0338
2925.00,0.0343
2924.00,0.0346
2923.00,0.0348
2922.00,0.0348
2921.00,0.0347
2920.00,0.0344
2919.00,0.0340
2918.00,0.0335
2917.00,0.0329
2916.00,0.0323
2915.00,0.0315
2914.00,0.0307
2913.00,0.0299
2912.00,0.0290
2911.00,0.0281
2910.00,0.0272
2909.00,0.0264
2908.00,0.0255
2907.00,0.0246
2906.00,0.0237
2905.00,0.0229
2904.00,0.0220
2903.00,0.0211
2902.00,0.0203
2901.00,0.0194
2900.00,0.0186
2899.00,0.0178
2898.00,0.0171
2897.00,0.0164
2896.00,0.0158
2895.00,0.0152
2894.00,0.0147
2893.00,0.0143
2892.00,0.0139
2891.00,0.0135
2890.00,0.0132
2889.00,0.0128
2888.00,0.0125
2887.00,0.0122
2886.00,0.0119
2885.00,0.0116
2884.00,0.0114
2883.00,0.0111
2882.00,0.0108
2881.00,0.0106
2880.00,0.0104
2879.00,0.0101
2878.00,0.0099
2877.00,0.0097
2876.00,0.0095
2875.00,0.0094
2874.00,0.0092
2873.00,0.0091
2872.00,0.0090
2871.00,0.0090
2870.00,0.0089
2869.00,0.0090
2868.00,0.0090
2867.00,0.0091
2866.00,0.0093
2865.00,0.0095
2864.00,0.0098
2863.00,0.0102
2862.00,0.0106
2861.00,0.0110
2860.00,0.0115
2859.00,0.0121
2858.00,0.0126
2857.00,0.0131
2856.00,0.0136
2855.00,0.0141
2854.00,0.0145
2853.00,0.0149
2852.00,0.0152
2851.00,0.0153
2850.00,0.0154
2849.00,0.0153
2848.00,0.0150
2847.00,0.0146
2846.00,0.0141
2845.00,0.0135
2844.00,0.0127
2843.00,0.0119
2842.00,0.0110
2841.00,0.0101
2840.00,0.0093
2839.00,0.0085
2838.00,0.0078
2837.00,0.0071
2836.00,0.0065
2835.00,0.0060
2834.00,0.0056
2833.00,0.0052
2832.00,0.0050
2831.00,0.0047
2830.00,0.0046
2829.00,0.0044
2828.00,0.0043
2827.00,0.0042
2826.00,0.0041
2825.00,0.0040
2824.00,0.0039
2823.00,0.0039
2822.00,0.0038
2821.00,0.0038
2820.00,0.0037
2819.00,0.0037
2818.00,0.0036
2817.00,0.0036
2816.00,0.0036
2815.00,0.0035
2814.00,0.0035
2813.00,0.0035
2812.00,0.0035
2811.00,0.0035
2810.00,0.0034
2809.00,0.0034
2808.00,0.0034
2807.00,0.0033
2806.00,0.0033
2805.00,0.0033
2804.00,0.0032
2803.00,0.0032
2802.00,0.0032
2801.00,0.0032
2800.00,0.0031
2799.00,0.0031
2798.00,0.0031
2797.00,0.0031
2796.00,0.0030
2795.00,0.0030
2794.00,0.0030
2793.00,0.0030
2792.00,0.0029
2791.00,0.0029
2790.00,0.0029
2789.00,0.0029
2788.00,0.0029
2787.00,0.0029
2786.00,0.0029
2785.00,0.0029
2784.00,0.0029
2783.00,0.0029
2782.00,0.0028
2781.00,0.0028
2780.00,0.0028
2779.00,0.0028
2778.00,0.0028
2777.00,0.0028
2776.00,0.0028
2775.00,0.0028
2774.00,0.0027
2773.00,0.0027
2772.00,0.0027
2771.00,0.0027
2770.00,0.0027
2769.00,0.0026
2768.00,0.0026
2767.00,0.0026
2766.00,0.0026
2765.00,0.0026
2764.00,0.0025
2763.00,0.0025
2762.00,0.0025
2761.00,0.0025
2760.00,0.0025
2759.00,0.0025
2758.00,0.0025
2757.00,0.0025
2756.00,0.0025
2755.00,0.0025
2754.00,0.0025
2753.00,0.0025
2752.00,0.0025
2751.00,0.0024
2750.00,0.0024
2749.00,0.0025
2748.00,0.0025
2747.00,0.0025
2746.00,0.0025
2745.00,0.0025
2744.00,0.0025
2743.00,0.0025
2742.00,0.0025
2741.00,0.0025
2740.00,0.0025
2739.00,0.0025
2738.00,0.0025
2737.00,0.0025
2736.00,0.0025
2735.00,0.0025
2734.00,0.0025
2733.00,0.0025
2732.00,0.0025
2731.00,0.0025
2730.00,0.0025
2729.00,0.0025
2728.00,0.0025
2727.00,0.0025
2726.00,0.0025
2725.00,0.0025
2724.00,0.0025
2723.00,0.0025
2722.00,0.0025
2721.00,0.0025
2720.00,0.0025
2719.00,0.0025
2718.00,0.0025
2717.00,0.0025
2716.00,0.0025
2715.00,0.0025
2714.00,0.0025
2713.00,0.0025
2712.00,0.0025
2711.00,0.0025
2710.00,0.0025
2709.00,0.0025
2708.00,0.0025
2707.00,0.0025
2706.00,0.0025
2705.00,0.0025
2704.00,0.0025
2703.00,0.0024
2702.00,0.0024
2701.00,0.0024
2700.00,0.0024
2699.00,0.0024
2698.00,0.0024
2697.00,0.0024
2696.00,0.0024
2695.00,0.0024
2694.00,0.0025
2693.00,0.0025
2692.00,0.0025
2691.00,0.0025
2690.00,0.0025
2689.00,0.0025
2688.00,0.0025
2687.00,0.0025
2686.00,0.0024
2685.00,0.0024
2684.00,0.0024
2683.00,0.0025
2682.00,0.0025
2681.00,0.0025
2680.00,0.0025
2679.00,0.0024
2678.00,0.0024
2677.00,0.0024
2676.00,0.0024
2675.00,0.0024
2674.00,0.0024
2673.00,0.0024
2672.00,0.0024
2671.00,0.0024
2670.00,0.0024
2669.00,0.0024
2668.00,0.0024
2667.00,0.0025
2666.00,0.0025
2665.00,0.0025
2664.00,0.0025
2663.00,0.0025
2662.00,0.0025
2661.00,0.0025
2660.00,0.0026
2659.00,0.0026
2658.00,0.0026
2657.00,0.0026
2656.00,0.0026
2655.00,0.0026
2654.00,0.0026
2653.00,0.0026
2652.00,0.0026
2651.00,0.0026
2650.00,0.0026
2649.00,0.0026
2648.00,0.0026
2647.00,0.0026
2646.00,0.0026
2645.00,0.0026
2644.00,0.0025
2643.00,0.0025
2642.00,0.0025
2641.00,0.0026
2640.00,0.0026
2639.00,0.0026
2638.00,0.0026
2637.00,0.0027
2636.00,0.0027
2635.00,0.0027
2634.00,0.0027
2633.00,0.0026
2632.00,0.0026
2631.00,0.0026
2630.00,0.0026
2629.00,0.0025
2628.00,0.0025
2627.00,0.0025
2626.00,0.0024
2625.00,0.0024
2624.00,0.0024
2623.00,0.0024
2622.00,0.0024
2621.00,0.0024
2620.00,0.0023
2619.00,0.0023
2618.00,0.0023
2617.00,0.0023
2616.00,0.0023
2615.00,0.0022
2614.00,0.0022
2613.00,0.0022
2612.00,0.0023
2611.00,0.0023
2610.00,0.0023
2609.00,0.0024
2608.00,0.0024
2607.00,0.0024
2606.00,0.0024
2605.00,0.0024
2604.00,0.0024
2603.00,0.0024
2602.00,0.0023
2601.00,0.0023
2600.00,0.0023
2599.00,0.0023
2598.00,0.0023
2597.00,0.0023
2596.00,0.0023
2595.00,0.0022
2594.00,0.0022
2593.00,0.0022
2592.00,0.0021
2591.00,0.0021
2590.00,0.0021
2589.00,0.0021
2588.00,0.0020
2587.00,0.0021
2586.00,0.0021
2585.00,0.0021
2584.00,0.0022
2583.00,0.0022
2582.00,0.0022
2581.00,0.0022
2580.00,0.0022
2579.00,0.0021
2578.00,0.0021
2577.00,0.0021
2576.00,0.0020
2575.00,0.0020
2574.00,0.0020
2573.00,0.0020
2572.00,0.0020
2571.00,0.0020
2570.00,0.0019
2569.00,0.0019
2568.00,0.0019
2567.00,0.0020
2566.00,0.0020
2565.00,0.0020
2564.00,0.0020
2563.00,0.0020
2562.00,0.0019
2561.00,0.0019
2560.00,0.0019
2559.00,0.0018
2558.00,0.0019
2557.00,0.0019
2556.00,0.0019
2555.00,0.0019
2554.00,0.0019
2553.00,0.0019
2552.00,0.0019
2551.00,0.0018
2550.00,0.0018
2549.00,0.0018
2548.00,0.0018
2547.00,0.0018
2546.00,0.0019
2545.00,0.0019
2544.00,0.0019
2543.00,0.0018
2542.00,0.0018
2541.00,0.0018
2540.00,0.0019
2539.00,0.0019
2538.00,0.0019
2537.00,0.0019
2536.00,0.0019
2535.00,0.0019
2534.00,0.0019
2533.00,0.0019
2532.00,0.0019
2531.00,0.0018
2530.00,0.0018
2529.00,0.0018
2528.00,0.0018
2527.00,0.0018
2526.00,0.0018
2525.00,0.0018
2524.00,0.0018
2523.00,0.0018
2522.00,0.0018
2521.00,0.0018
2520.00,0.0019
2519.00,0.0018
2518.00,0.0018
2517.00,0.0018
2516.00,0.0017
2515.00,0.0017
2514.00,0.0017
2513.00,0.0018
2512.00,0.0018
2511.00,0.0018
2510.00,0.0018
2509.00,0.0018
2508.00,0.0018
2507.00,0.0018
2506.00,0.0018
2505.00,0.0018
2504.00,0.0018
2503.00,0.0017
2502.00,0.0017
2501.00,0.0017
2500.00,0.0017
2499.00,0.0017
2498.00,0.0017
2497.00,0.0017
2496.00,0.0017
2495.00,0.0017
2494.00,0.0017
2493.00,0.0018
2492.00,0.0018
2491.00,0.0018
2490.00,0.0018
2489.00,0.0018
2488.00,0.0017
2487.00,0.0017
2486.00,0.0017
2485.00,0.0017
2484.00,0.0017
2483.00,0.0017
2482.00,0.0017
2481.00,0.0017
2480.00,0.0017
2479.00,0.0017
2478.00,0.0016
2477.00,0.0016
2476.00,0.0016
2475.00,0.0015
2474.00,0.0015
2473.00,0.0015
2472.00,0.0015
2471.00,0.0015
2470.00,0.0015
2469.00,0.0015
2468.00,0.0015
2467.00,0.0016
2466.00,0.0016
2465.00,0.0016
2464.00,0.0015
2463.00,0.0015
2462.00,0.0015
2461.00,0.0015
2460.00,0.0015
2459.00,0.0015
2458.00,0.0016
2457.00,0.0016
2456.00,0.0016
2455.00,0.0016
2454.00,0.0016
2453.00,0.0016
2452.00,0.0016
2451.00,0.0016
2450.00,0.0016
2449.00,0.0016
2448.00,0.0015
2447.00,0.0015
2446.00,0.0015
2445.00,0.0015
2444.00,0.0015
2443.00,0.0015
2442.00,0.0016
2441.00,0.0016
2440.00,0.0015
2439.00,0.0015
2438.00,0.0015
2437.00,0.0014
2436.00,0.0014
2435.00,0.0014
2434.00,0.0014
2433.00,0.0014
2432.00,0.0014
2431.00,0.0014
2430.00,0.0014
2429.00,0.0014
2428.00,0.0014
2427.00,0.0014
2426.00,0.0014
2425.00,0.0014
2424.00,0.0014
2423.00,0.0014
2422.00,0.0014
2421.00,0.0014
2420.00,0.0014
2419.00,0.0014
2418.00,0.0014
2417.00,0.0014
2416.00,0.0013
2415.00,0.0013
2414.00,0.0014
2413.00,0.0014
2412.00,0.0014
2411.00,0.0014
2410.00,0.0013
2409.00,0.0013
2408.00,0.0013
2407.00,0.0013
2406.00,0.0012
2405.00,0.0012
2404.00,0.0013
2403.00,0.0013
2402.00,0.0013
2401.00,0.0013
2400.00,0.0013
2399.00,0.0013
2398.00,0.0012
2397.00,0.0013
2396.00,0.0013
2395.00,0.0013
2394.00,0.0013
2393.00,0.0013
2392.00,0.0013
2391.00,0.0013
2390.00,0.0013
2389.00,0.0013
2388.00,0.0013
2387.00,0.0013
2386.00,0.0013
2385.00,0.0013
2384.00,0.0014
2383.00,0.0014
2382.00,0.0014
2381.00,0.0014
2380.00,0.0014
2379.00,0.0014
2378.00,0.0014
2377.00,0.0014
2376.00,0.0014
2375.00,0.0014
2374.00,0.0014
2373.00,0.0014
2372.00,0.0014
2371.00,0.0014
2370.00,0.0014
2369.00,0.0014
2368.00,0.0014
2367.00,0.0014
2366.00,0.0014
2365.00,0.0015
2364.00,0.0015
2363.00,0.0015
2362.00,0.0015
2361.00,0.0015
2360.00,0.0016
2359.00,0.0016
2358.00,0.0017
2357.00,0.0017
2356.00,0.0017
2355.00,0.0016
2354.00,0.0016
2353.00,0.0015
2352.00,0.0016
2351.00,0.0016
2350.00,0.0017
2349.00,0.0017
2348.00,0.0018
2347.00,0.0017
2346.00,0.0017
2345.00,0.0017
2344.00,0.0018
2343.00,0.0018
2342.00,0.0019
2341.00,0.0019
2340.00,0.0020
2339.00,0.0021
2338.00,0.0021
2337.00,0.0021
2336.00,0.0021
2335.00,0.0021
2334.00,0.0021
2333.00,0.0020
2332.00,0.0020
2331.00,0.0020
2330.00,0.0020
2329.00,0.0020
2328.00,0.0022
2327.00,0.0024
2326.00,0.0025
2325.00,0.0025
2324.00,0.0025
2323.00,0.0023
2322.00,0.0022
2321.00,0.0021
2320.00,0.0021
2319.00,0.0021
2318.00,0.0021
2317.00,0.0021
2316.00,0.0021
2315.00,0.0021
2314.00,0.0021
2313.00,0.0021
2312.00,0.0021
2311.00,0.0021
2310.00,0.0021
2309.00,0.0021
2308.00,0.0021
2307.00,0.0021
2306.00,0.0020
2305.00,0.0020
2304.00,0.0020
2303.00,0.0020
2302.00,0.0020
2301.00,0.0020
2300.00,0.0019
2299.00,0.0019
2298.00,0.0018
2297.00,0.0018
2296.00,0.0019
2295.00,0.0019
2294.00,0.0019
2293.00,0.0020
2292.00,0.0021
2291.00,0.0021
2290.00,0.0022
2289.00,0.0021
2288.00,0.0021
2287.00,0.0021
2286.00,0.0020
2285.00,0.0019
2284.00,0.0019
2283.00,0.0019
2282.00,0.0018
2281.00,0.0018
2280.00,0.0017
2279.00,0.0016
2278.00,0.0016
2277.00,0.0015
2276.00,0.0015
2275.00,0.0015
2274.00,0.0015
2273.00,0.0014
2272.00,0.0014
2271.00,0.0014
2270.00,0.0014
2269.00,0.0014
2268.00,0.0014
2267.00,0.0014
2266.00,0.0015
2265.00,0.0016
2264.00,0.0016
2263.00,0.0016
2262.00,0.0015
2261.00,0.0015
2260.00,0.0015
2259.00,0.0015
2258.00,0.0015
2257.00,0.0015
2256.00,0.0015
2255.00,0.0015
2254.00,0.0014
2253.00,0.0014
2252.00,0.0014
2251.00,0.0014
2250.00,0.0014
2249.00,0.0014
2248.00,0.0014
2247.00,0.0014
2246.00,0.0014
2245.00,0.0014
2244.00,0.0014
2243.00,0.0014
2242.00,0.0014
2241.00,0.0014
2240.00,0.0014
2239.00,0.0014
2238.00,0.0014
2237.00,0.0014
2236.00,0.0014
2235.00,0.0014
2234.00,0.0014
2233.00,0.0013
2232.00,0.0012
2231.00,0.0011
2230.00,0.0011
2229.00,0.0010
2228.00,0.0010
2227.00,0.0010
2226.00,0.0011
2225.00,0.0012
2224.00,0.0012
2223.00,0.0012
2222.00,0.0012
2221.00,0.0012
2220.00,0.0012
2219.00,0.0013
2218.00,0.0013
2217.00,0.0013
2216.00,0.0013
2215.00,0.0013
2214.00,0.0012
2213.00,0.0012
2212.00,0.0013
2211.00,0.0013
2210.00,0.0013
2209.00,0.0014
2208.00,0.0013
2207.00,0.0013
2206.00,0.0012
2205.00,0.0011
2204.00,0.0011
2203.00,0.0011
2202.00,0.0011
2201.00,0.0012
2200.00,0.0012
2199.00,0.0012
2198.00,0.0012
2197.00,0.0012
2196.00,0.0011
2195.00,0.0011
2194.00,0.0012
2193.00,0.0012
2192.00,0.0011
2191.00,0.0011
2190.00,0.0010
2189.00,0.0010
2188.00,0.0010
2187.00,0.0011
2186.00,0.0011
2185.00,0.0011
2184.00,0.0010
2183.00,0.0009
2182.00,0.0009
2181.00,0.0010
2180.00,0.0011
2179.00,0.0012
2178.00,0.0011
2177.00,0.0010
2176.00,0.0008
2175.00,0.0007
2174.00,0.0008
2173.00,0.0009
2172.00,0.0011
2171.00,0.0012
2170.00,0.0013
2169.00,0.0013
2168.00,0.0013
2167.00,0.0013
2166.00,0.0013
2165.00,0.0013
2164.00,0.0014
2163.00,0.0013
2162.00,0.0011
2161.00,0.0005
2160.00,-0.0003
2159.00,-0.0009
2158.00,-0.0010
2157.00,-0.0008
2156.00,-0.0005
2155.00,-0.0003
2154.00,-0.0002
2153.00,-0.0001
2152.00,-0.0000
2151.00,0.0001
2150.00,0.0001
2149.00,0.0001
2148.00,0.0000
2147.00,-0.0001
2146.00,-0.0002
2145.00,-0.0003
2144.00,-0.0002
2143.00,-0.0001
2142.00,-0.0000
2141.00,0.0001
2140.00,0.0001
2139.00,0.0001
2138.00,0.0000
2137.00,-0.0001
2136.00,-0.0002
2135.00,-0.0003
2134.00,-0.0004
2133.00,-0.0003
2132.00,-0.0002
2131.00,-0.0000
2130.00,0.0001
2129.00,0.0002
2128.00,0.0003
2127.00,0.0003
2126.00,0.0003
2125.00,0.0003
2124.00,0.0004
2123.00,0.0005
2122.00,0.0006
2121.00,0.0006
2120.00,0.0007
2119.00,0.0007
2118.00,0.0008
2117.00,0.0008
2116.00,0.0008
2115.00,0.0008
2114.00,0.0009
2113.00,0.0009
2112.00,0.0010
2111.00,0.0010
2110.00,0.0009
2109.00,0.0008
2108.00,0.0007
2107.00,0.0007
2106.00,0.0007
2105.00,0.0008
2104.00,0.0008
2103.00,0.0008
2102.00,0.0008
2101.00,0.0009
2100.00,0.0008
2099.00,0.0008
2098.00,0.0007
2097.00,0.0005
2096.00,0.0005
2095.00,0.0005
2094.00,0.0006
2093.00,0.0007
2092.00,0.0008
2091.00,0.0008
2090.00,0.0008
2089.00,0.0008
2088.00,0.0008
2087.00,0.0009
2086.00,0.0009
2085.00,0.0010
2084.00,0.0010
2083.00,0.0010
2082.00,0.0009
2081.00,0.0009
2080.00,0.0008
2079.00,0.0008
2078.00,0.0009
2077.00,0.0009
2076.00,0.0009
2075.00,0.0008
2074.00,0.0008
2073.00,0.0007
2072.00,0.0008
2071.00,0.0008
2070.00,0.0008
2069.00,0.0007
2068.00,0.0007
2067.00,0.0006
2066.00,0.0006
2065.00,0.0005
2064.00,0.0005
2063.00,0.0005
2062.00,0.0005
2061.00,0.0005
2060.00,0.0006
2059.00,0.0007
2058.00,0.0008
2057.00,0.0007
2056.00,0.0007
2055.00,0.0006
2054.00,0.0006
2053.00,0.0008
2052.00,0.0010
2051.00,0.0010
2050.00,0.0009
2049.00,0.0008
2048.00,0.0007
2047.00,0.0006
2046.00,0.0006
2045.00,0.0005
2044.00,0.0005
2043.00,0.0005
2042.00,0.0005
2041.00,0.0005
2040.00,0.0003
2039.00,0.0002
2038.00,0.0001
2037.00,0.0001
2036.00,0.0002
2035.00,0.0002
2034.00,0.0003
2033.00,0.0002
2032.00,0.0001
2031.00,0.0001
2030.00,0.0001
2029.00,0.0002
2028.00,0.0002
2027.00,0.0002
2026.00,0.0002
2025.00,0.0001
2024.00,0.0000
2023.00,0.0001
2022.00,0.0002
2021.00,0.0003
2020.00,0.0003
2019.00,0.0003
2018.00,0.0003
2017.00,0.0003
2016.00,0.0004
2015.00,0.0006
2014.00,0.0007
2013.00,0.0007
2012.00,0.0008
2011.00,0.0008
2010.00,0.0008
2009.00,0.0006
2008.00,0.0003
2007.00,0.0001
2006.00,-0.0000
2005.00,0.0000
2004.00,0.0001
2003.00,0.0003
2002.00,0.0004
2001.00,0.0005
2000.00,0.0006
1999.00,0.0006
1998.00,0.0006
1997.00,0.0006
1996.00,0.0006
1995.00,0.0007
1994.00,0.0008
1993.00,0.0008
1992.00,0.0009
1991.00,0.0010
1990.00,0.0010
1989.00,0.0009
1988.00,0.0009
1987.00,0.0010
1986.00,0.0011
1985.00,0.0013
1984.00,0.0015
1983.00,0.0017
1982.00,0.0018
1981.00,0.0019
1980.00,0.0017
1979.00,0.0013
1978.00,0.0010
1977.00,0.0008
1976.00,0.0008
1975.00,0.0008
1974.00,0.0007
1973.00,0.0006
1972.00,0.0006
1971.00,0.0006
1970.00,0.0008
1969.00,0.0009
1968.00,0.0011
1967.00,0.0012
1966.00,0.0014
1965.00,0.0016
1964.00,0.0019
1963.00,0.0021
1962.00,0.0022
1961.00,0.0022
1960.00,0.0023
1959.00,0.0024
1958.00,0.0025
1957.00,0.0025
1956.00,0.0026
1955.00,0.0027
1954.00,0.0028
1953.00,0.0030
1952.00,0.0032
1951.00,0.0033
1950.00,0.0035
1949.00,0.0036
1948.00,0.0037
1947.00,0.0039
1946.00,0.0041
1945.00,0.0042
1944.00,0.0042
1943.00,0.0042
1942.00,0.0042
1941.00,0.0041
1940.00,0.0040
1939.00,0.0039
1938.00,0.0037
1937.00,0.0034
1936.00,0.0032
1935.00,0.0029
1934.00,0.0027
1933.00,0.0025
1932.00,0.0023
1931.00,0.0021
1930.00,0.0019
1929.00,0.0018
1928.00,0.0017
1927.00,0.0016
1926.00,0.0016
1925.00,0.0015
1924.00,0.0014
1923.00,0.0014
1922.00,0.0013
1921.00,0.0013
1920.00,0.0013
1919.00,0.0012
1918.00,0.0011
1917.00,0.0011
1916.00,0.0011
1915.00,0.0011
1914.00,0.0012
1913.00,0.0012
1912.00,0.0012
1911.00,0.0012
1910.00,0.0012
1909.00,0.0011
1908.00,0.0011
1907.00,0.0011
1906.00,0.0011
1905.00,0.0011
1904.00,0.0012
1903.00,0.0013
1902.00,0.0014
1901.00,0.0014
1900.00,0.0015
1899.00,0.0016
1898.00,0.0017
1897.00,0.0018
1896.00,0.0018
1895.00,0.0019
1894.00,0.0021
1893.00,0.0022
1892.00,0.0023
1891.00,0.0025
1890.00,0.0025
1889.00,0.0026
1888.00,0.0027
1887.00,0.0029
1886.00,0.0030
1885.00,0.0031
1884.00,0.0032
1883.00,0.0033
1882.00,0.0034
1881.00,0.0034
1880.00,0.0034
1879.00,0.0035
1878.00,0.0035
1877.00,0.0036
1876.00,0.0037
1875.00,0.0037
1874.00,0.0038
1873.00,0.0039
1872.00,0.0040
1871.00,0.0040
1870.00,0.0039
1869.00,0.0038
1868.00,0.0038
1867.00,0.0037
1866.00,0.0036
1865.00,0.0036
1864.00,0.0034
1863.00,0.0033
1862.00,0.0031
1861.00,0.0029
1860.00,0.0028
1859.00,0.0026
1858.00,0.0024
1857.00,0.0022
1856.00,0.0021
1855.00,0.0019
1854.00,0.0018
1853.00,0.0017
1852.00,0.0016
1851.00,0.0016
1850.00,0.0015
1849.00,0.0015
1848.00,0.0014
1847.00,0.0014
1846.00,0.0013
1845.00,0.0013
1844.00,0.0013
1843.00,0.0013
1842.00,0.0013
1841.00,0.0013
1840.00,0.0013
1839.00,0.0014
1838.00,0.0014
1837.00,0.0014
1836.00,0.0014
1835.00,0.0014
1834.00,0.0015
1833.00,0.0015
1832.00,0.0016
1831.00,0.0017
1830.00,0.0017
1829.00,0.0018
1828.00,0.0018
1827.00,0.0019
1826.00,0.0020
1825.00,0.0021
1824.00,0.0022
1823.00,0.0023
1822.00,0.0024
1821.00,0.0026
1820.00,0.0027
1819.00,0.0028
1818.00,0.0029
1817.00,0.0030
1816.00,0.0031
1815.00,0.0032
1814.00,0.0033
1813.00,0.0035
1812.00,0.0036
1811.00,0.0038
1810.00,0.0039
1809.00,0.0041
1808.00,0.0042
1807.00,0.0044
1806.00,0.0045
1805.00,0.0046
1804.00,0.0046
1803.00,0.0046
1802.00,0.0046
1801.00,0.0046
1800.00,0.0045
1799.00,0.0044
1798.00,0.0043
1797.00,0.0042
1796.00,0.0040
1795.00,0.0038
1794.00,0.0036
1793.00,0.0033
1792.00,0.0031
1791.00,0.0030
1790.00,0.0028
1789.00,0.0028
1788.00,0.0027
1787.00,0.0027
1786.00,0.0026
1785.00,0.0026
1784.00,0.0025
1783.00,0.0025
1782.00,0.0026
1781.00,0.0026
1780.00,0.0026
1779.00,0.0027
1778.00,0.0027
1777.00,0.0027
1776.00,0.0027
1775.00,0.0028
1774.00,0.0028
1773.00,0.0028
1772.00,0.0028
1771.00,0.0028
1770.00,0.0028
1769.00,0.0028
1768.00,0.0028
1767.00,0.0029
1766.00,0.0030
1765.00,0.0031
1764.00,0.0032
1763.00,0.0033
1762.00,0.0034
1761.00,0.0034
1760.00,0.0036
1759.00,0.0037
1758.00,0.0039
1757.00,0.0041
1756.00,0.0043
1755.00,0.0044
1754.00,0.0046
1753.00,0.0048
1752.00,0.0050
1751.00,0.0053
1750.00,0.0054
1749.00,0.0056
1748.00,0.0057
1747.00,0.0058
1746.00,0.0059
1745.00,0.0060
1744.00,0.0061
1743.00,0.0062
1742.00,0.0063
1741.00,0.0064
1740.00,0.0065
1739.00,0.0065
1738.00,0.0064
1737.00,0.0064
1736.00,0.0063
1735.00,0.0063
1734.00,0.0063
1733.00,0.0062
1732.00,0.0061
1731.00,0.0060
1730.00,0.0058
1729.00,0.0056
1728.00,0.0055
1727.00,0.0053
1726.00,0.0053
1725.00,0.0052
1724.00,0.0051
1723.00,0.0049
1722.00,0.0048
1721.00,0.0047
1720.00,0.0045
1719.00,0.0044
1718.00,0.0044
1717.00,0.0043
1716.00,0.0043
1715.00,0.0043
1714.00,0.0042
1713.00,0.0041
1712.00,0.0041
1711.00,0.0041
1710.00,0.0041
1709.00,0.0041
1708.00,0.0040
1707.00,0.0040
1706.00,0.0040
1705.00,0.0040
1704.00,0.0040
1703.00,0.0040
1702.00,0.0041
1701.00,0.0042
1700.00,0.0044
1699.00,0.0045
1698.00,0.0046
1697.00,0.0048
1696.00,0.0051
1695.00,0.0054
1694.00,0.0056
1693.00,0.0058
1692.00,0.0059
1691.00,0.0060
1690.00,0.0062
1689.00,0.0064
1688.00,0.0065
1687.00,0.0066
1686.00,0.0068
1685.00,0.0072
1684.00,0.0076
1683.00,0.0079
1682.00,0.0080
1681.00,0.0080
1680.00,0.0080
1679.00,0.0080
1678.00,0.0080
1677.00,0.0080
1676.00,0.0081
1675.00,0.0082
1674.00,0.0083
1673.00,0.0083
1672.00,0.0083
1671.00,0.0084
1670.00,0.0084
1669.00,0.0085
1668.00,0.0085
1667.00,0.0085
1666.00,0.0085
1665.00,0.0084
1664.00,0.0083
1663.00,0.0081
1662.00,0.0080
1661.00,0.0079
1660.00,0.0077
1659.00,0.0076
1658.00,0.0074
1657.00,0.0072
1656.00,0.0070
1655.00,0.0068
1654.00,0.0067
1653.00,0.0066
1652.00,0.0065
1651.00,0.0064
1650.00,0.0061
1649.00,0.0059
1648.00,0.0057
1647.00,0.0055
1646.00,0.0054
1645.00,0.0052
1644.00,0.0051
1643.00,0.0050
1642.00,0.0048
1641.00,0.0047
1640.00,0.0046
1639.00,0.0045
1638.00,0.0044
1637.00,0.0043
1636.00,0.0042
1635.00,0.0041
1634.00,0.0041
1633.00,0.0041
1632.00,0.0041
1631.00,0.0041
1630.00,0.0041
1629.00,0.0041
1628.00,0.0041
1627.00,0.0040
1626.00,0.0041
1625.00,0.0041
1624.00,0.0042
1623.00,0.0042
1622.00,0.0043
1621.00,0.0043
1620.00,0.0044
1619.00,0.0045
1618.00,0.0047
1617.00,0.0049
1616.00,0.0052
1615.00,0.0055
1614.00,0.0058
1613.00,0.0061
1612.00,0.0066
1611.00,0.0074
1610.00,0.0085
1609.00,0.0101
1608.00,0.0121
1607.00,0.0147
1606.00,0.0177
1605.00,0.0208
1604.00,0.0240
1603.00,0.0268
1602.00,0.0285
1601.00,0.0287
1600.00,0.0276
1599.00,0.0252
1598.00,0.0223
1597.00,0.0192
1596.00,0.0165
1595.00,0.0143
1594.00,0.0126
1593.00,0.0112
1592.00,0.0102
1591.00,0.0094
1590.00,0.0089
1589.00,0.0087
1588.00,0.0090
1587.00,0.0096
1586.00,0.0106
1585.00,0.0116
1584.00,0.0122
1583.00,0.0122
1582.00,0.0115
1581.00,0.0103
1580.00,0.0089
1579.00,0.0077
1578.00,0.0067
1577.00,0.0060
1576.00,0.0054
1575.00,0.0051
1574.00,0.0047
1573.00,0.0045
1572.00,0.0042
1571.00,0.0039
1570.00,0.0037
1569.00,0.0035
1568.00,0.0034
1567.00,0.0034
1566.00,0.0034
1565.00,0.0033
1564.00,0.0032
1563.00,0.0032
1562.00,0.0032
1561.00,0.0032
1560.00,0.0032
1559.00,0.0032
1558.00,0.0032
1557.00,0.0032
1556.00,0.0034
1555.00,0.0035
1554.00,0.0036
1553.00,0.0038
1552.00,0.0039
1551.00,0.0040
1550.00,0.0041
1549.00,0.0042
1548.00,0.0043
1547.00,0.0044
1546.00,0.0045
1545.00,0.0045
1544.00,0.0045
1543.00,0.0045
1542.00,0.0045
1541.00,0.0045
1540.00,0.0045
1539.00,0.0045
1538.00,0.0045
1537.00,0.0045
1536.00,0.0043
1535.00,0.0041
1534.00,0.0039
1533.00,0.0036
1532.00,0.0035
1531.00,0.0034
1530.00,0.0034
1529.00,0.0033
1528.00,0.0032
1527.00,0.0031
1526.00,0.0030
1525.00,0.0030
1524.00,0.0030
1523.00,0.0030
1522.00,0.0030
1521.00,0.0030
1520.00,0.0030
1519.00,0.0031
1518.00,0.0031
1517.00,0.0031
1516.00,0.0032
1515.00,0.0033
1514.00,0.0034
1513.00,0.0036
1512.00,0.0037
1511.00,0.0038
1510.00,0.0039
1509.00,0.0039
1508.00,0.0041
1507.00,0.0046
1506.00,0.0053
1505.00,0.0061
1504.00,0.0068
1503.00,0.0077
1502.00,0.0087
1501.00,0.0102
1500.00,0.0126
1499.00,0.0164
1498.00,0.0228
1497.00,0.0330
1496.00,0.0459
1495.00,0.0582
1494.00,0.0666
1493.00,0.0699
1492.00,0.0676
1491.00,0.0601
1490.00,0.0495
1489.00,0.0392
1488.00,0.0311
1487.00,0.0253
1486.00,0.0210
1485.00,0.0177
1484.00,0.0151
1483.00,0.0130
1482.00,0.0114
1481.00,0.0101
1480.00,0.0092
1479.00,0.0086
1478.00,0.0081
1477.00,0.0078
1476.00,0.0075
1475.00,0.0073
1474.00,0.0071
1473.00,0.0072
1472.00,0.0074
1471.00,0.0076
1470.00,0.0078
1469.00,0.0080
1468.00,0.0082
1467.00,0.0085
1466.00,0.0088
1465.00,0.0094
1464.00,0.0100
1463.00,0.0106
1462.00,0.0112
1461.00,0.0120
1460.00,0.0132
1459.00,0.0157
1458.00,0.0215
1457.00,0.0323
1456.00,0.0454
1455.00,0.0564
1454.00,0.0647
1453.00,0.0700
1452.00,0.0717
1451.00,0.0697
1450.00,0.0650
1449.00,0.0594
1448.00,0.0541
1447.00,0.0496
1446.00,0.0458
1445.00,0.0424
1444.00,0.0391
1443.00,0.0359
1442.00,0.0330
1441.00,0.0304
1440.00,0.0281
1439.00,0.0258
1438.00,0.0236
1437.00,0.0214
1436.00,0.0192
1435.00,0.0174
1434.00,0.0158
1433.00,0.0144
1432.00,0.0131
1431.00,0.0120
1430.00,0.0111
1429.00,0.0103
1428.00,0.0097
1427.00,0.0093
1426.00,0.0090
1425.00,0.0087
1424.00,0.0083
1423.00,0.0081
1422.00,0.0078
1421.00,0.0076
1420.00,0.0073
1419.00,0.0071
1418.00,0.0069
1417.00,0.0068
1416.00,0.0066
1415.00,0.0065
1414.00,0.0064
1413.00,0.0063
1412.00,0.0062
1411.00,0.0062
1410.00,0.0062
1409.00,0.0061
1408.00,0.0061
1407.00,0.0061
1406.00,0.0061
1405.00,0.0061
1404.00,0.0060
1403.00,0.0061
1402.00,0.0061
1401.00,0.0062
1400.00,0.0062
1399.00,0.0062
1398.00,0.0063
1397.00,0.0064
1396.00,0.0065
1395.00,0.0067
1394.00,0.0070
1393.00,0.0074
1392.00,0.0078
1391.00,0.0082
1390.00,0.0086
1389.00,0.0091
1388.00,0.0096
1387.00,0.0102
1386.00,0.0108
1385.00,0.0114
1384.00,0.0118
1383.00,0.0123
1382.00,0.0127
1381.00,0.0131
1380.00,0.0135
1379.00,0.0139
1378.00,0.0143
1377.00,0.0147
1376.00,0.0150
1375.00,0.0153
1374.00,0.0156
1373.00,0.0158
1372.00,0.0158
1371.00,0.0158
1370.00,0.0157
1369.00,0.0156
1368.00,0.0155
1367.00,0.0153
1366.00,0.0152
1365.00,0.0150
1364.00,0.0148
1363.00,0.0147
1362.00,0.0145
1361.00,0.0144
1360.00,0.0141
1359.00,0.0139
1358.00,0.0137
1357.00,0.0135
1356.00,0.0133
1355.00,0.0132
1354.00,0.0131
1353.00,0.0131
1352.00,0.0130
1351.00,0.0130
1350.00,0.0130
1349.00,0.0129
1348.00,0.0128
1347.00,0.0127
1346.00,0.0125
1345.00,0.0123
1344.00,0.0121
1343.00,0.0118
1342.00,0.0116
1341.00,0.0114
1340.00,0.0113
1339.00,0.0112
1338.00,0.0112
1337.00,0.0113
1336.00,0.0115
1335.00,0.0118
1334.00,0.0121
1333.00,0.0124
1332.00,0.0128
1331.00,0.0131
1330.00,0.0133
1329.00,0.0135
1328.00,0.0135
1327.00,0.0134
1326.00,0.0133
1325.00,0.0131
1324.00,0.0129
1323.00,0.0127
1322.00,0.0126
1321.00,0.0125
1320.00,0.0125
1319.00,0.0125
1318.00,0.0126
1317.00,0.0127
1316.00,0.0129
1315.00,0.0130
1314.00,0.0131
1313.00,0.0132
1312.00,0.0132
1311.00,0.0131
1310.00,0.0130
1309.00,0.0129
1308.00,0.0127
1307.00,0.0126
1306.00,0.0124
1305.00,0.0122
1304.00,0.0120
1303.00,0.0119
1302.00,0.0117
1301.00,0.0116
1300.00,0.0115
1299.00,0.0115
1298.00,0.0115
1297.00,0.0116
1296.00,0.0117
1295.00,0.0118
1294.00,0.0119
1293.00,0.0119
1292.00,0.0118
1291.00,0.0117
1290.00,0.0116
1289.00,0.0114
1288.00,0.0111
1287.00,0.0110
1286.00,0.0108
1285.00,0.0107
1284.00,0.0106
1283.00,0.0105
1282.00,0.0104
1281.00,0.0104
1280.00,0.0103
1279.00,0.0101
1278.00,0.0100
1277.00,0.0098
1276.00,0.0096
1275.00,0.0093
1274.00,0.0091
1273.00,0.0089
1272.00,0.0087
1271.00,0.0085
1270.00,0.0083
1269.00,0.0082
1268.00,0.0080
1267.00,0.0079
1266.00,0.0078
1265.00,0.0077
1264.00,0.0076
1263.00,0.0075
1262.00,0.0075
1261.00,0.0074
1260.00,0.0074
1259.00,0.0073
1258.00,0.0074
1257.00,0.0074
1256.00,0.0074
1255.00,0.0074
1254.00,0.0074
1253.00,0.0075
1252.00,0.0075
1251.00,0.0075
1250.00,0.0076
1249.00,0.0076
1248.00,0.0076
1247.00,0.0076
1246.00,0.0077
1245.00,0.0076
1244.00,0.0076
1243.00,0.0076
1242.00,0.0076
1241.00,0.0077
1240.00,0.0076
1239.00,0.0076
1238.00,0.0075
1237.00,0.0075
1236.00,0.0074
1235.00,0.0074
1234.00,0.0074
1233.00,0.0074
1232.00,0.0074
1231.00,0.0075
1230.00,0.0075
1229.00,0.0076
1228.00,0.0076
1227.00,0.0076
1226.00,0.0076
1225.00,0.0076
1224.00,0.0076
1223.00,0.0076
1222.00,0.0076
1221.00,0.0076
1220.00,0.0075
1219.00,0.0075
1218.00,0.0076
1217.00,0.0076
1216.00,0.0077
1215.00,0.0077
1214.00,0.0078
1213.00,0.0079
1212.00,0.0080
1211.00,0.0081
1210.00,0.0083
1209.00,0.0085
1208.00,0.0086
1207.00,0.0088
1206.00,0.0091
1205.00,0.0093
1204.00,0.0096
1203.00,0.0099
1202.00,0.0102
1201.00,0.0105
1200.00,0.0107
1199.00,0.0109
1198.00,0.0112
1197.00,0.0113
1196.00,0.0114
1195.00,0.0114
1194.00,0.0115
1193.00,0.0115
1192.00,0.0115
1191.00,0.0116
1190.00,0.0117
1189.00,0.0119
1188.00,0.0122
1187.00,0.0126
1186.00,0.0131
1185.00,0.0138
1184.00,0.0145
1183.00,0.0152
1182.00,0.0156
1181.00,0.0156
1180.00,0.0152
1179.00,0.0144
1178.00,0.0134
1177.00,0.0124
1176.00,0.0115
1175.00,0.0108
1174.00,0.0103
1173.00,0.0100
1172.00,0.0097
1171.00,0.0096
1170.00,0.0095
1169.00,0.0094
1168.00,0.0094
1167.00,0.0093
1166.00,0.0093
1165.00,0.0094
1164.00,0.0095
1163.00,0.0098
1162.00,0.0102
1161.00,0.0108
1160.00,0.0115
1159.00,0.0124
1158.00,0.0135
1157.00,0.0145
1156.00,0.0152
1155.00,0.0156
1154.00,0.0155
1153.00,0.0149
1152.00,0.0139
1151.00,0.0127
1150.00,0.0115
1149.00,0.0105
1148.00,0.0097
1147.00,0.0090
1146.00,0.0086
1145.00,0.0082
1144.00,0.0078
1143.00,0.0076
1142.00,0.0073
1141.00,0.0072
1140.00,0.0070
1139.00,0.0068
1138.00,0.0067
1137.00,0.0066
1136.00,0.0065
1135.00,0.0065
1134.00,0.0065
1133.00,0.0065
1132.00,0.0065
1131.00,0.0065
1130.00,0.0065
1129.00,0.0066
1128.00,0.0066
1127.00,0.0066
1126.00,0.0066
1125.00,0.0066
1124.00,0.0067
1123.00,0.0068
1122.00,0.0069
1121.00,0.0071
1120.00,0.0073
1119.00,0.0075
1118.00,0.0078
1117.00,0.0081
1116.00,0.0083
1115.00,0.0084
1114.00,0.0086
1113.00,0.0086
1112.00,0.0087
1111.00,0.0087
1110.00,0.0087
1109.00,0.0086
1108.00,0.0085
1107.00,0.0084
1106.00,0.0084
1105.00,0.0084
1104.00,0.0084
1103.00,0.0085
1102.00,0.0086
1101.00,0.0088
1100.00,0.0088
1099.00,0.0089
1098.00,0.0091
1097.00,0.0092
1096.00,0.0093
1095.00,0.0095
1094.00,0.0096
1093.00,0.0098
1092.00,0.0098
1091.00,0.0100
1090.00,0.0102
1089.00,0.0104
1088.00,0.0107
1087.00,0.0110
1086.00,0.0113
1085.00,0.0117
1084.00,0.0121
1083.00,0.0126
1082.00,0.0131
1081.00,0.0136
1080.00,0.0141
1079.00,0.0146
1078.00,0.0152
1077.00,0.0158
1076.00,0.0164
1075.00,0.0172
1074.00,0.0180
1073.00,0.0189
1072.00,0.0197
1071.00,0.0203
1070.00,0.0208
1069.00,0.0209
1068.00,0.0208
1067.00,0.0204
1066.00,0.0199
1065.00,0.0192
1064.00,0.0184
1063.00,0.0176
1062.00,0.0170
1061.00,0.0163
1060.00,0.0157
1059.00,0.0151
1058.00,0.0146
1057.00,0.0141
1056.00,0.0136
1055.00,0.0131
1054.00,0.0128
1053.00,0.0125
1052.00,0.0121
1051.00,0.0118
1050.00,0.0116
1049.00,0.0114
1048.00,0.0111
1047.00,0.0109
1046.00,0.0108
1045.00,0.0107
1044.00,0.0106
1043.00,0.0106
1042.00,0.0107
1041.00,0.0109
1040.00,0.0112
1039.00,0.0118
1038.00,0.0127
1037.00,0.0140
1036.00,0.0158
1035.00,0.0183
1034.00,0.0214
1033.00,0.0249
1032.00,0.0283
1031.00,0.0314
1030.00,0.0340
1029.00,0.0356
1028.00,0.0360
1027.00,0.0353
1026.00,0.0336
1025.00,0.0312
1024.00,0.0286
1023.00,0.0262
1022.00,0.0242
1021.00,0.0226
1020.00,0.0212
1019.00,0.0199
1018.00,0.0189
1017.00,0.0180
1016.00,0.0172
1015.00,0.0165
1014.00,0.0159
1013.00,0.0153
1012.00,0.0148
1011.00,0.0144
1010.00,0.0142
1009.00,0.0140
1008.00,0.0140
1007.00,0.0142
1006.00,0.0147
1005.00,0.0151
1004.00,0.0154
1003.00,0.0154
1002.00,0.0150
1001.00,0.0143
1000.00,0.0133
999.00,0.0124
998.00,0.0117
997.00,0.0113
996.00,0.0110
995.00,0.0109
994.00,0.0108
993.00,0.0109
992.00,0.0109
991.00,0.0110
990.00,0.0111
989.00,0.0113
988.00,0.0115
987.00,0.0118
986.00,0.0122
985.00,0.0125
984.00,0.0129
983.00,0.0132
982.00,0.0135
981.00,0.0137
980.00,0.0138
979.00,0.0137
978.00,0.0135
977.00,0.0133
976.00,0.0130
975.00,0.0127
974.00,0.0125
973.00,0.0125
972.00,0.0125
971.00,0.0128
970.00,0.0132
969.00,0.0136
968.00,0.0141
967.00,0.0146
966.00,0.0149
965.00,0.0151
964.00,0.0150
963.00,0.0148
962.00,0.0144
961.00,0.0139
960.00,0.0132
959.00,0.0126
958.00,0.0121
957.00,0.0117
956.00,0.0114
955.00,0.0111
954.00,0.0110
953.00,0.0109
952.00,0.0109
951.00,0.0110
950.00,0.0112
949.00,0.0114
948.00,0.0116
947.00,0.0117
946.00,0.0119
945.00,0.0120
944.00,0.0120
943.00,0.0121
942.00,0.0120
941.00,0.0119
940.00,0.0116
939.00,0.0113
938.00,0.0110
937.00,0.0106
936.00,0.0102
935.00,0.0098
934.00,0.0095
933.00,0.0092
932.00,0.0089
931.00,0.0087
930.00,0.0086
929.00,0.0085
928.00,0.0085
927.00,0.0085
926.00,0.0086
925.00,0.0088
924.00,0.0089
923.00,0.0091
922.00,0.0094
921.00,0.0097
920.00,0.0100
919.00,0.0105
918.00,0.0111
917.00,0.0118
916.00,0.0127
915.00,0.0137
914.00,0.0151
913.00,0.0165
912.00,0.0181
911.00,0.0197
910.00,0.0212
909.00,0.0226
908.00,0.0236
907.00,0.0241
906.00,0.0242
905.00,0.0237
904.00,0.0226
903.00,0.0212
902.00,0.0195
901.00,0.0177
900.00,0.0159
899.00,0.0142
898.00,0.0129
897.00,0.0118
896.00,0.0108
895.00,0.0101
894.00,0.0096
893.00,0.0092
892.00,0.0088
891.00,0.0085
890.00,0.0083
889.00,0.0080
888.00,0.0078
887.00,0.0076
886.00,0.0074
885.00,0.0073
884.00,0.0071
883.00,0.0070
882.00,0.0069
881.00,0.0068
880.00,0.0067
879.00,0.0067
878.00,0.0066
877.00,0.0066
876.00,0.0065
875.00,0.0064
874.00,0.0064
873.00,0.0064
872.00,0.0063
871.00,0.0063
870.00,0.0063
869.00,0.0063
868.00,0.0062
867.00,0.0062
866.00,0.0062
865.00,0.0061
864.00,0.0061
863.00,0.0061
862.00,0.0061
861.00,0.0061
860.00,0.0060
859.00,0.0061
858.00,0.0062
857.00,0.0063
856.00,0.0063
855.00,0.0065
854.00,0.0067
853.00,0.0070
852.00,0.0074
851.00,0.0079
850.00,0.0085
849.00,0.0092
848.00,0.0099
847.00,0.0106
846.00,0.0113
845.00,0.0120
844.00,0.0124
843.00,0.0127
842.00,0.0129
841.00,0.0128
840.00,0.0125
839.00,0.0120
838.00,0.0114
837.00,0.0107
836.00,0.0098
835.00,0.0090
834.00,0.0083
833.00,0.0076
832.00,0.0071
831.00,0.0067
830.00,0.0065
829.00,0.0064
828.00,0.0062
827.00,0.0061
826.00,0.0061
825.00,0.0060
824.00,0.0059
823.00,0.0058
822.00,0.0058
821.00,0.0059
820.00,0.0059
819.00,0.0059
818.00,0.0060
817.00,0.0061
816.00,0.0061
815.00,0.0062
814.00,0.0062
813.00,0.0063
812.00,0.0063
811.00,0.0063
810.00,0.0064
809.00,0.0065
808.00,0.0065
807.00,0.0065
806.00,0.0065
805.00,0.0066
804.00,0.0067
803.00,0.0068
802.00,0.0070
801.00,0.0072
800.00,0.0074
799.00,0.0076
798.00,0.0079
797.00,0.0083
796.00,0.0086
795.00,0.0089
794.00,0.0094
793.00,0.0100
792.00,0.0105
791.00,0.0112
790.00,0.0119
789.00,0.0126
788.00,0.0133
787.00,0.0141
786.00,0.0151
785.00,0.0161
784.00,0.0170
783.00,0.0181
782.00,0.0193
781.00,0.0207
780.00,0.0223
779.00,0.0241
778.00,0.0263
777.00,0.0288
776.00,0.0314
775.00,0.0344
774.00,0.0376
773.00,0.0411
772.00,0.0448
771.00,0.0488
770.00,0.0531
769.00,0.0574
768.00,0.0617
767.00,0.0658
766.00,0.0700
765.00,0.0740
764.00,0.0780
763.00,0.0821
762.00,0.0863
761.00,0.0906
760.00,0.0946
759.00,0.0984
758.00,0.1016
757.00,0.1041
756.00,0.1055
755.00,0.1061
754.00,0.1060
753.00,0.1056
752.00,0.1051
751.00,0.1047
750.00,0.1045
749.00,0.1043
748.00,0.1036
747.00,0.1019
746.00,0.0988
745.00,0.0941
744.00,0.0879
743.00,0.0808
742.00,0.0736
741.00,0.0666
740.00,0.0601
739.00,0.0541
738.00,0.0487
737.00,0.0437
736.00,0.0388
735.00,0.0341
734.00,0.0298
733.00,0.0259
732.00,0.0225
731.00,0.0197
730.00,0.0176
729.00,0.0161
728.00,0.0149
727.00,0.0140
726.00,0.0134
725.00,0.0129
724.00,0.0126
723.00,0.0124
722.00,0.0124
721.00,0.0124
720.00,0.0125
719.00,0.0127
718.00,0.0131
717.00,0.0138
716.00,0.0147
715.00,0.0159
714.00,0.0178
713.00,0.0203
712.00,0.0237
711.00,0.0285
710.00,0.0349
709.00,0.0433
708.00,0.0539
707.00,0.0669
706.00,0.0825
705.00,0.1006
704.00,0.1211
703.00,0.1440
702.00,0.1691
701.00,0.1962
700.00,0.2245
699.00,0.2536
698.00,0.2825
697.00,0.3082
696.00,0.3259
695.00,0.3307
694.00,0.3196
693.00,0.2936
692.00,0.2586
691.00,0.2217
690.00,0.1882
689.00,0.1602
688.00,0.1376
687.00,0.1199
686.00,0.1061
685.00,0.0952
684.00,0.0862
683.00,0.0788
682.00,0.0726
681.00,0.0674
680.00,0.0629
679.00,0.0591
678.00,0.0559
677.00,0.0532
676.00,0.0506
675.00,0.0484
674.00,0.0466
673.00,0.0450
672.00,0.0435
671.00,0.0421
670.00,0.0409
669.00,0.0397
668.00,0.0382
667.00,0.0367
666.00,0.0356
665.00,0.0343
664.00,0.0330
663.00,0.0316
662.00,0.0304
661.00,0.0291
660.00,0.0279
659.00,0.0268
658.00,0.0258
657.00,0.0248
656.00,0.0238
655.00,0.0228
654.00,0.0220
653.00,0.0214
652.00,0.0207
651.00,0.0201
650.00,0.0196
649.00,0.0191
648.00,0.0185
647.00,0.0180
646.00,0.0176
645.00,0.0174
644.00,0.0170
643.00,0.0169
642.00,0.0169
641.00,0.0169
640.00,0.0169
639.00,0.0170
638.00,0.0173
637.00,0.0177
636.00,0.0179
635.00,0.0182
634.00,0.0187
633.00,0.0192
632.00,0.0196
631.00,0.0200
630.00,0.0204
629.00,0.0208
628.00,0.0209
627.00,0.0211
626.00,0.0214
625.00,0.0217
624.00,0.0219
623.00,0.0223
622.00,0.0228
621.00,0.0231
620.00,0.0228
619.00,0.0223
618.00,0.0218
617.00,0.0212
616.00,0.0206
615.00,0.0201
614.00,0.0197
613.00,0.0193
612.00,0.0189
611.00,0.0185
610.00,0.0183
609.00,0.0182
608.00,0.0181
607.00,0.0179
606.00,0.0180
605.00,0.0181
604.00,0.0181
603.00,0.0183
602.00,0.0185
601.00,0.0188
600.00,0.0188
599.00,0.0189
598.00,0.0192
597.00,0.0196
596.00,0.0197
595.00,0.0199
594.00,0.0201
593.00,0.0203
592.00,0.0204
591.00,0.0206
590.00,0.0209
589.00,0.0213
588.00,0.0216
587.00,0.0219
586.00,0.0225
585.00,0.0231
584.00,0.0236
583.00,0.0241
582.00,0.0248
581.00,0.0256
580.00,0.0263
579.00,0.0272
578.00,0.0285
577.00,0.0298
576.00,0.0311
575.00,0.0324
574.00,0.0339
573.00,0.0354
572.00,0.0367
571.00,0.0382
570.00,0.0397
569.00,0.0412
568.00,0.0424
567.00,0.0437
566.00,0.0452
565.00,0.0466
564.00,0.0478
563.00,0.0490
562.00,0.0504
561.00,0.0519
560.00,0.0533
559.00,0.0548
558.00,0.0563
557.00,0.0577
556.00,0.0590
555.00,0.0604
554.00,0.0621
553.00,0.0639
552.00,0.0657
551.00,0.0676
550.00,0.0699
549.00,0.0723
548.00,0.0749
547.00,0.0778
546.00,0.0811
545.00,0.0846
544.00,0.0879
543.00,0.0912
542.00,0.0945
541.00,0.0975
540.00,0.0997
539.00,0.1010
538.00,0.1014
537.00,0.1005
536.00,0.0983
535.00,0.0950
534.00,0.0909
533.00,0.0861
532.00,0.0809
531.00,0.0757
530.00,0.0708
529.00,0.0661
528.00,0.0615
527.00,0.0572
526.00,0.0534
525.00,0.0500
524.00,0.0467
523.00,0.0440
522.00,0.0418
521.00,0.0399
520.00,0.0379
519.00,0.0363
518.00,0.0353
517.00,0.0344
516.00,0.0333
515.00,0.0322
514.00,0.0313
513.00,0.0303
512.00,0.0292
511.00,0.0281
510.00,0.0274
509.00,0.0266
508.00,0.0256
507.00,0.0247
506.00,0.0243
505.00,0.0240
504.00,0.0234
503.00,0.0227
502.00,0.0221
501.00,0.0216
500.00,0.0209
499.00,0.0205
498.00,0.0204
497.00,0.0202
496.00,0.0195
495.00,0.0189
494.00,0.0186
493.00,0.0184
492.00,0.0180
491.00,0.0177
490.00,0.0178
489.00,0.0177
488.00,0.0173
487.00,0.0169
486.00,0.0168
485.00,0.0166
484.00,0.0159
483.00,0.0154
482.00,0.0154
481.00,0.0155
480.00,0.0153
479.00,0.0152
478.00,0.0155
477.00,0.0157
476.00,0.0154
475.00,0.0152
474.00,0.0156
473.00,0.0158
472.00,0.0153
471.00,0.0148
470.00,0.0147
469.00,0.0145
468.00,0.0140
467.00,0.0137
466.00,0.0140
465.00,0.0143
464.00,0.0140
463.00,0.0136
462.00,0.0137
461.00,0.0138
460.00,0.0137
459.00,0.0137
458.00,0.0142
457.00,0.0142
456.00,0.0136
455.00,0.0131
454.00,0.0134
453.00,0.0138
452.00,0.0137
451.00,0.0137
450.00,0.0140
449.00,0.0141
448.00,0.0134
447.00,0.0128
446.00,0.0130
445.00,0.0132
444.00,0.0129
443.00,0.0127
442.00,0.0128
441.00,0.0128
440.00,0.0122
439.00,0.0119
438.00,0.0122
437.00,0.0124
436.00,0.0120
435.00,0.0117
434.00,0.0122
433.00,0.0126
432.00,0.0122
431.00,0.0115
430.00,0.0115
429.00,0.0118
428.00,0.0116
427.00,0.0115
426.00,0.0118
425.00,0.0120
424.00,0.0115
423.00,0.0113
422.00,0.0119
421.00,0.0121
420.00,0.0110
419.00,0.0103
418.00,0.0113
417.00,0.0121
416.00,0.0113
415.00,0.0106
414.00,0.0108
413.00,0.0110
412.00,0.0105
411.00,0.0105
410.00,0.0120
409.00,0.0135
408.00,0.0137
407.00,0.0135
406.00,0.0141
405.00,0.0140
404.00,0.0126
403.00,0.0117
402.00,0.0124
401.00,0.0129
400.00,0.0116
