Created as New Dataset,Sample 716 By YargerLab Date Tuesday, June 24 2025
cm-1,A
4000.00,0.0016
3999.00,0.0016
3998.00,0.0016
3997.00,0.0016
3996.00,0.0016
3995.00,0.0016
3994.00,0.0016
3993.00,0.0016
3992.00,0.0016
3991.00,0.0016
3990.00,0.0016
3989.00,0.0016
3988.00,0.0016
3987.00,0.0016
3986.00,0.0016
3985.00,0.0016
3984.00,0.0016
3983.00,0.0016
3982.00,0.0016
3981.00,0.0016
3980.00,0.0016
3979.00,0.0016
3978.00,0.0016
3977.00,0.0016
3976.00,0.0016
3975.00,0.0016
3974.00,0.0016
3973.00,0.0016
3972.00,0.0016
3971.00,0.0016
3970.00,0.0016
3969.00,0.0016
3968.00,0.0016
3967.00,0.0016
3966.00,0.0016
3965.00,0.0016
3964.00,0.0016
3963.00,0.0015
3962.00,0.0015
3961.00,0.0015
3960.00,0.0015
3959.00,0.0016
3958.00,0.0016
3957.00,0.0016
3956.00,0.0016
3955.00,0.0016
3954.00,0.0016
3953.00,0.0016
3952.00,0.0016
3951.00,0.0016
3950.00,0.0016
3949.00,0.0016
3948.00,0.0016
3947.00,0.0016
3946.00,0.0016
3945.00,0.0016
3944.00,0.0016
3943.00,0.0016
3942.00,0.0016
3941.00,0.0016
3940.00,0.0016
3939.00,0.0015
3938.00,0.0015
3937.00,0.0016
3936.00,0.0016
3935.00,0.0016
3934.00,0.0016
3933.00,0.0016
3932.00,0.0016
3931.00,0.0016
3930.00,0.0016
3929.00,0.0016
3928.00,0.0016
3927.00,0.0016
3926.00,0.0016
3925.00,0.0016
3924.00,0.0016
3923.00,0.0016
3922.00,0.0016
3921.00,0.0016
3920.00,0.0016
3919.00,0.0015
3918.00,0.0015
3917.00,0.0015
3916.00,0.0015
3915.00,0.0015
3914.00,0.0015
3913.00,0.0015
3912.00,0.0015
3911.00,0.0015
3910.00,0.0015
3909.00,0.0016
3908.00,0.0016
3907.00,0.0016
3906.00,0.0016
3905.00,0.0016
3904.00,0.0016
3903.00,0.0017
3902.00,0.0017
3901.00,0.0017
3900.00,0.0017
3899.00,0.0016
3898.00,0.0016
3897.00,0.0016
3896.00,0.0016
3895.00,0.0016
3894.00,0.0016
3893.00,0.0016
3892.00,0.0016
3891.00,0.0016
3890.00,0.0016
3889.00,0.0016
3888.00,0.0016
3887.00,0.0015
3886.00,0.0015
3885.00,0.0016
3884.00,0.0016
3883.00,0.0016
3882.00,0.0016
3881.00,0.0015
3880.00,0.0016
3879.00,0.0016
3878.00,0.0016
3877.00,0.0016
3876.00,0.0016
3875.00,0.0016
3874.00,0.0016
3873.00,0.0016
3872.00,0.0016
3871.00,0.0016
3870.00,0.0016
3869.00,0.0016
3868.00,0.0016
3867.00,0.0016
3866.00,0.0016
3865.00,0.0015
3864.00,0.0015
3863.00,0.0015
3862.00,0.0016
3861.00,0.0016
3860.00,0.0016
3859.00,0.0016
3858.00,0.0016
3857.00,0.0017
3856.00,0.0017
3855.00,0.0017
3854.00,0.0017
3853.00,0.0017
3852.00,0.0017
3851.00,0.0017
3850.00,0.0016
3849.00,0.0016
3848.00,0.0016
3847.00,0.0016
3846.00,0.0016
3845.00,0.0016
3844.00,0.0016
3843.00,0.0016
3842.00,0.0017
3841.00,0.0017
3840.00,0.0017
3839.00,0.0017
3838.00,0.0017
3837.00,0.0017
3836.00,0.0017
3835.00,0.0017
3834.00,0.0017
3833.00,0.0017
3832.00,0.0017
3831.00,0.0017
3830.00,0.0017
3829.00,0.0017
3828.00,0.0016
3827.00,0.0016
3826.00,0.0017
3825.00,0.0017
3824.00,0.0017
3823.00,0.0017
3822.00,0.0017
3821.00,0.0017
3820.00,0.0017
3819.00,0.0018
3818.00,0.0018
3817.00,0.0017
3816.00,0.0017
3815.00,0.0016
3814.00,0.0016
3813.00,0.0016
3812.00,0.0016
3811.00,0.0016
3810.00,0.0016
3809.00,0.0017
3808.00,0.0016
3807.00,0.0016
3806.00,0.0017
3805.00,0.0017
3804.00,0.0017
3803.00,0.0017
3802.00,0.0017
3801.00,0.0017
3800.00,0.0017
3799.00,0.0017
3798.00,0.0017
3797.00,0.0016
3796.00,0.0016
3795.00,0.0016
3794.00,0.0017
3793.00,0.0017
3792.00,0.0017
3791.00,0.0016
3790.00,0.0016
3789.00,0.0016
3788.00,0.0016
3787.00,0.0016
3786.00,0.0016
3785.00,0.0016
3784.00,0.0016
3783.00,0.0016
3782.00,0.0016
3781.00,0.0016
3780.00,0.0016
3779.00,0.0016
3778.00,0.0016
3777.00,0.0016
3776.00,0.0016
3775.00,0.0016
3774.00,0.0016
3773.00,0.0016
3772.00,0.0017
3771.00,0.0017
3770.00,0.0017
3769.00,0.0017
3768.00,0.0017
3767.00,0.0017
3766.00,0.0017
3765.00,0.0017
3764.00,0.0017
3763.00,0.0017
3762.00,0.0017
3761.00,0.0017
3760.00,0.0017
3759.00,0.0017
3758.00,0.0017
3757.00,0.0017
3756.00,0.0017
3755.00,0.0018
3754.00,0.0018
3753.00,0.0018
3752.00,0.0018
3751.00,0.0018
3750.00,0.0018
3749.00,0.0018
3748.00,0.0018
3747.00,0.0018
3746.00,0.0018
3745.00,0.0017
3744.00,0.0017
3743.00,0.0017
3742.00,0.0018
3741.00,0.0018
3740.00,0.0017
3739.00,0.0017
3738.00,0.0017
3737.00,0.0017
3736.00,0.0017
3735.00,0.0017
3734.00,0.0017
3733.00,0.0017
3732.00,0.0017
3731.00,0.0017
3730.00,0.0016
3729.00,0.0016
3728.00,0.0016
3727.00,0.0015
3726.00,0.0015
3725.00,0.0016
3724.00,0.0016
3723.00,0.0016
3722.00,0.0016
3721.00,0.0016
3720.00,0.0016
3719.00,0.0016
3718.00,0.0016
3717.00,0.0016
3716.00,0.0015
3715.00,0.0016
3714.00,0.0016
3713.00,0.0016
3712.00,0.0017
3711.00,0.0017
3710.00,0.0017
3709.00,0.0017
3708.00,0.0016
3707.00,0.0016
3706.00,0.0015
3705.00,0.0015
3704.00,0.0015
3703.00,0.0015
3702.00,0.0015
3701.00,0.0016
3700.00,0.0016
3699.00,0.0016
3698.00,0.0015
3697.00,0.0015
3696.00,0.0015
3695.00,0.0015
3694.00,0.0015
3693.00,0.0015
3692.00,0.0015
3691.00,0.0015
3690.00,0.0015
3689.00,0.0014
3688.00,0.0014
3687.00,0.0013
3686.00,0.0013
3685.00,0.0012
3684.00,0.0012
3683.00,0.0012
3682.00,0.0012
3681.00,0.0011
3680.00,0.0011
3679.00,0.0011
3678.00,0.0011
3677.00,0.0010
3676.00,0.0009
3675.00,0.0009
3674.00,0.0009
3673.00,0.0009
3672.00,0.0009
3671.00,0.0008
3670.00,0.0008
3669.00,0.0007
3668.00,0.0007
3667.00,0.0007
3666.00,0.0007
3665.00,0.0006
3664.00,0.0006
3663.00,0.0006
3662.00,0.0006
3661.00,0.0006
3660.00,0.0006
3659.00,0.0006
3658.00,0.0006
3657.00,0.0006
3656.00,0.0006
3655.00,0.0006
3654.00,0.0007
3653.00,0.0007
3652.00,0.0008
3651.00,0.0008
3650.00,0.0009
3649.00,0.0009
3648.00,0.0008
3647.00,0.0008
3646.00,0.0008
3645.00,0.0008
3644.00,0.0008
3643.00,0.0008
3642.00,0.0009
3641.00,0.0009
3640.00,0.0009
3639.00,0.0009
3638.00,0.0009
3637.00,0.0009
3636.00,0.0009
3635.00,0.0010
3634.00,0.0011
3633.00,0.0012
3632.00,0.0013
3631.00,0.0013
3630.00,0.0013
3629.00,0.0013
3628.00,0.0013
3627.00,0.0013
3626.00,0.0013
3625.00,0.0013
3624.00,0.0013
3623.00,0.0013
3622.00,0.0013
3621.00,0.0013
3620.00,0.0014
3619.00,0.0014
3618.00,0.0014
3617.00,0.0014
3616.00,0.0014
3615.00,0.0014
3614.00,0.0014
3613.00,0.0014
3612.00,0.0014
3611.00,0.0014
3610.00,0.0015
3609.00,0.0015
3608.00,0.0015
3607.00,0.0014
3606.00,0.0014
3605.00,0.0014
3604.00,0.0014
3603.00,0.0014
3602.00,0.0014
3601.00,0.0013
3600.00,0.0013
3599.00,0.0013
3598.00,0.0013
3597.00,0.0014
3596.00,0.0014
3595.00,0.0014
3594.00,0.0014
3593.00,0.0014
3592.00,0.0014
3591.00,0.0014
3590.00,0.0014
3589.00,0.0014
3588.00,0.0014
3587.00,0.0013
3586.00,0.0014
3585.00,0.0014
3584.00,0.0014
3583.00,0.0014
3582.00,0.0013
3581.00,0.0013
3580.00,0.0013
3579.00,0.0014
3578.00,0.0014
3577.00,0.0014
3576.00,0.0014
3575.00,0.0014
3574.00,0.0015
3573.00,0.0015
3572.00,0.0015
3571.00,0.0015
3570.00,0.0015
3569.00,0.0015
3568.00,0.0014
3567.00,0.0014
3566.00,0.0014
3565.00,0.0013
3564.00,0.0013
3563.00,0.0014
3562.00,0.0014
3561.00,0.0014
3560.00,0.0014
3559.00,0.0014
3558.00,0.0014
3557.00,0.0014
3556.00,0.0014
3555.00,0.0014
3554.00,0.0014
3553.00,0.0014
3552.00,0.0014
3551.00,0.0014
3550.00,0.0014
3549.00,0.0014
3548.00,0.0014
3547.00,0.0015
3546.00,0.0015
3545.00,0.0015
3544.00,0.0015
3543.00,0.0015
3542.00,0.0015
3541.00,0.0015
3540.00,0.0015
3539.00,0.0015
3538.00,0.0015
3537.00,0.0015
3536.00,0.0015
3535.00,0.0015
3534.00,0.0015
3533.00,0.0015
3532.00,0.0015
3531.00,0.0015
3530.00,0.0015
3529.00,0.0015
3528.00,0.0015
3527.00,0.0015
3526.00,0.0015
3525.00,0.0015
3524.00,0.0015
3523.00,0.0015
3522.00,0.0015
3521.00,0.0015
3520.00,0.0015
3519.00,0.0015
3518.00,0.0015
3517.00,0.0015
3516.00,0.0015
3515.00,0.0015
3514.00,0.0015
3513.00,0.0015
3512.00,0.0015
3511.00,0.0016
3510.00,0.0016
3509.00,0.0016
3508.00,0.0015
3507.00,0.0015
3506.00,0.0016
3505.00,0.0016
3504.00,0.0016
3503.00,0.0016
3502.00,0.0016
3501.00,0.0015
3500.00,0.0015
3499.00,0.0016
3498.00,0.0016
3497.00,0.0016
3496.00,0.0016
3495.00,0.0016
3494.00,0.0016
3493.00,0.0016
3492.00,0.0016
3491.00,0.0016
3490.00,0.0016
3489.00,0.0016
3488.00,0.0016
3487.00,0.0016
3486.00,0.0016
3485.00,0.0016
3484.00,0.0015
3483.00,0.0015
3482.00,0.0015
3481.00,0.0015
3480.00,0.0015
3479.00,0.0015
3478.00,0.0015
3477.00,0.0015
3476.00,0.0015
3475.00,0.0015
3474.00,0.0016
3473.00,0.0016
3472.00,0.0016
3471.00,0.0015
3470.00,0.0015
3469.00,0.0015
3468.00,0.0015
3467.00,0.0016
3466.00,0.0016
3465.00,0.0016
3464.00,0.0016
3463.00,0.0016
3462.00,0.0016
3461.00,0.0016
3460.00,0.0016
3459.00,0.0016
3458.00,0.0016
3457.00,0.0016
3456.00,0.0016
3455.00,0.0016
3454.00,0.0016
3453.00,0.0016
3452.00,0.0016
3451.00,0.0016
3450.00,0.0016
3449.00,0.0016
3448.00,0.0016
3447.00,0.0016
3446.00,0.0016
3445.00,0.0016
3444.00,0.0016
3443.00,0.0016
3442.00,0.0015
3441.00,0.0015
3440.00,0.0015
3439.00,0.0015
3438.00,0.0016
3437.00,0.0016
3436.00,0.0016
3435.00,0.0016
3434.00,0.0016
3433.00,0.0016
3432.00,0.0016
3431.00,0.0016
3430.00,0.0016
3429.00,0.0016
3428.00,0.0016
3427.00,0.0016
3426.00,0.0016
3425.00,0.0016
3424.00,0.0016
3423.00,0.0016
3422.00,0.0016
3421.00,0.0016
3420.00,0.0016
3419.00,0.0015
3418.00,0.0015
3417.00,0.0015
3416.00,0.0015
3415.00,0.0016
3414.00,0.0016
3413.00,0.0016
3412.00,0.0016
3411.00,0.0016
3410.00,0.0016
3409.00,0.0016
3408.00,0.0016
3407.00,0.0016
3406.00,0.0016
3405.00,0.0016
3404.00,0.0016
3403.00,0.0015
3402.00,0.0015
3401.00,0.0015
3400.00,0.0016
3399.00,0.0016
3398.00,0.0015
3397.00,0.0015
3396.00,0.0015
3395.00,0.0015
3394.00,0.0015
3393.00,0.0016
3392.00,0.0016
3391.00,0.0016
3390.00,0.0016
3389.00,0.0016
3388.00,0.0016
3387.00,0.0016
3386.00,0.0016
3385.00,0.0016
3384.00,0.0016
3383.00,0.0016
3382.00,0.0016
3381.00,0.0016
3380.00,0.0016
3379.00,0.0015
3378.00,0.0015
3377.00,0.0015
3376.00,0.0015
3375.00,0.0016
3374.00,0.0016
3373.00,0.0016
3372.00,0.0016
3371.00,0.0016
3370.00,0.0016
3369.00,0.0016
3368.00,0.0016
3367.00,0.0015
3366.00,0.0015
3365.00,0.0015
3364.00,0.0015
3363.00,0.0015
3362.00,0.0015
3361.00,0.0015
3360.00,0.0015
3359.00,0.0015
3358.00,0.0015
3357.00,0.0015
3356.00,0.0015
3355.00,0.0015
3354.00,0.0015
3353.00,0.0015
3352.00,0.0015
3351.00,0.0015
3350.00,0.0015
3349.00,0.0015
3348.00,0.0015
3347.00,0.0015
3346.00,0.0015
3345.00,0.0014
3344.00,0.0014
3343.00,0.0014
3342.00,0.0015
3341.00,0.0015
3340.00,0.0015
3339.00,0.0015
3338.00,0.0015
3337.00,0.0015
3336.00,0.0015
3335.00,0.0015
3334.00,0.0015
3333.00,0.0016
3332.00,0.0016
3331.00,0.0016
3330.00,0.0016
3329.00,0.0016
3328.00,0.0016
3327.00,0.0016
3326.00,0.0015
3325.00,0.0015
3324.00,0.0015
3323.00,0.0015
3322.00,0.0015
3321.00,0.0015
3320.00,0.0015
3319.00,0.0015
3318.00,0.0015
3317.00,0.0015
3316.00,0.0015
3315.00,0.0015
3314.00,0.0016
3313.00,0.0016
3312.00,0.0016
3311.00,0.0016
3310.00,0.0016
3309.00,0.0016
3308.00,0.0015
3307.00,0.0015
3306.00,0.0015
3305.00,0.0015
3304.00,0.0015
3303.00,0.0015
3302.00,0.0015
3301.00,0.0015
3300.00,0.0015
3299.00,0.0016
3298.00,0.0015
3297.00,0.0015
3296.00,0.0015
3295.00,0.0015
3294.00,0.0015
3293.00,0.0015
3292.00,0.0015
3291.00,0.0015
3290.00,0.0015
3289.00,0.0015
3288.00,0.0015
3287.00,0.0015
3286.00,0.0015
3285.00,0.0015
3284.00,0.0015
3283.00,0.0015
3282.00,0.0015
3281.00,0.0014
3280.00,0.0014
3279.00,0.0014
3278.00,0.0015
3277.00,0.0015
3276.00,0.0015
3275.00,0.0016
3274.00,0.0016
3273.00,0.0016
3272.00,0.0016
3271.00,0.0016
3270.00,0.0016
3269.00,0.0016
3268.00,0.0016
3267.00,0.0015
3266.00,0.0015
3265.00,0.0015
3264.00,0.0015
3263.00,0.0015
3262.00,0.0015
3261.00,0.0015
3260.00,0.0015
3259.00,0.0015
3258.00,0.0015
3257.00,0.0015
3256.00,0.0015
3255.00,0.0015
3254.00,0.0015
3253.00,0.0015
3252.00,0.0014
3251.00,0.0014
3250.00,0.0014
3249.00,0.0014
3248.00,0.0014
3247.00,0.0015
3246.00,0.0015
3245.00,0.0015
3244.00,0.0015
3243.00,0.0014
3242.00,0.0014
3241.00,0.0014
3240.00,0.0014
3239.00,0.0014
3238.00,0.0014
3237.00,0.0014
3236.00,0.0014
3235.00,0.0014
3234.00,0.0014
3233.00,0.0014
3232.00,0.0014
3231.00,0.0013
3230.00,0.0013
3229.00,0.0013
3228.00,0.0013
3227.00,0.0013
3226.00,0.0013
3225.00,0.0014
3224.00,0.0014
3223.00,0.0014
3222.00,0.0014
3221.00,0.0014
3220.00,0.0014
3219.00,0.0014
3218.00,0.0014
3217.00,0.0014
3216.00,0.0014
3215.00,0.0014
3214.00,0.0014
3213.00,0.0014
3212.00,0.0015
3211.00,0.0015
3210.00,0.0015
3209.00,0.0015
3208.00,0.0015
3207.00,0.0015
3206.00,0.0015
3205.00,0.0015
3204.00,0.0015
3203.00,0.0015
3202.00,0.0015
3201.00,0.0015
3200.00,0.0015
3199.00,0.0015
3198.00,0.0015
3197.00,0.0014
3196.00,0.0014
3195.00,0.0014
3194.00,0.0014
3193.00,0.0014
3192.00,0.0014
3191.00,0.0014
3190.00,0.0014
3189.00,0.0014
3188.00,0.0014
3187.00,0.0014
3186.00,0.0014
3185.00,0.0014
3184.00,0.0014
3183.00,0.0014
3182.00,0.0014
3181.00,0.0014
3180.00,0.0014
3179.00,0.0014
3178.00,0.0014
3177.00,0.0014
3176.00,0.0014
3175.00,0.0014
3174.00,0.0014
3173.00,0.0014
3172.00,0.0014
3171.00,0.0014
3170.00,0.0015
3169.00,0.0015
3168.00,0.0015
3167.00,0.0015
3166.00,0.0015
3165.00,0.0015
3164.00,0.0015
3163.00,0.0015
3162.00,0.0015
3161.00,0.0015
3160.00,0.0015
3159.00,0.0015
3158.00,0.0015
3157.00,0.0015
3156.00,0.0015
3155.00,0.0015
3154.00,0.0015
3153.00,0.0015
3152.00,0.0015
3151.00,0.0015
3150.00,0.0015
3149.00,0.0015
3148.00,0.0015
3147.00,0.0015
3146.00,0.0015
3145.00,0.0015
3144.00,0.0015
3143.00,0.0015
3142.00,0.0015
3141.00,0.0015
3140.00,0.0015
3139.00,0.0015
3138.00,0.0015
3137.00,0.0015
3136.00,0.0015
3135.00,0.0015
3134.00,0.0015
3133.00,0.0015
3132.00,0.0015
3131.00,0.0015
3130.00,0.0015
3129.00,0.0016
3128.00,0.0016
3127.00,0.0016
3126.00,0.0016
3125.00,0.0016
3124.00,0.0016
3123.00,0.0016
3122.00,0.0017
3121.00,0.0017
3120.00,0.0018
3119.00,0.0018
3118.00,0.0018
3117.00,0.0019
3116.00,0.0019
3115.00,0.0020
3114.00,0.0021
3113.00,0.0023
3112.00,0.0024
3111.00,0.0026
3110.00,0.0028
3109.00,0.0030
3108.00,0.0032
3107.00,0.0034
3106.00,0.0036
3105.00,0.0037
3104.00,0.0038
3103.00,0.0039
3102.00,0.0039
3101.00,0.0038
3100.00,0.0038
3099.00,0.0037
3098.00,0.0036
3097.00,0.0036
3096.00,0.0036
3095.00,0.0037
3094.00,0.0039
3093.00,0.0041
3092.00,0.0044
3091.00,0.0047
3090.00,0.0052
3089.00,0.0058
3088.00,0.0064
3087.00,0.0071
3086.00,0.0078
3085.00,0.0084
3084.00,0.0089
3083.00,0.0092
3082.00,0.0093
3081.00,0.0091
3080.00,0.0088
3079.00,0.0084
3078.00,0.0080
3077.00,0.0076
3076.00,0.0073
3075.00,0.0070
3074.00,0.0069
3073.00,0.0069
3072.00,0.0069
3071.00,0.0071
3070.00,0.0073
3069.00,0.0077
3068.00,0.0082
3067.00,0.0087
3066.00,0.0094
3065.00,0.0101
3064.00,0.0108
3063.00,0.0115
3062.00,0.0121
3061.00,0.0126
3060.00,0.0128
3059.00,0.0127
3058.00,0.0124
3057.00,0.0119
3056.00,0.0113
3055.00,0.0106
3054.00,0.0099
3053.00,0.0092
3052.00,0.0086
3051.00,0.0081
3050.00,0.0076
3049.00,0.0073
3048.00,0.0070
3047.00,0.0068
3046.00,0.0067
3045.00,0.0066
3044.00,0.0066
3043.00,0.0068
3042.00,0.0070
3041.00,0.0073
3040.00,0.0077
3039.00,0.0082
3038.00,0.0087
3037.00,0.0094
3036.00,0.0103
3035.00,0.0113
3034.00,0.0126
3033.00,0.0140
3032.00,0.0156
3031.00,0.0173
3030.00,0.0191
3029.00,0.0208
3028.00,0.0223
3027.00,0.0236
3026.00,0.0243
3025.00,0.0245
3024.00,0.0240
3023.00,0.0228
3022.00,0.0212
3021.00,0.0192
3020.00,0.0171
3019.00,0.0150
3018.00,0.0130
3017.00,0.0113
3016.00,0.0098
3015.00,0.0086
3014.00,0.0075
3013.00,0.0067
3012.00,0.0060
3011.00,0.0055
3010.00,0.0050
3009.00,0.0047
3008.00,0.0044
3007.00,0.0042
3006.00,0.0041
3005.00,0.0040
3004.00,0.0039
3003.00,0.0038
3002.00,0.0037
3001.00,0.0034
3000.00,0.0030
2999.00,0.0024
2998.00,0.0019
2997.00,0.0012
2996.00,0.0006
2995.00,0.0000
2994.00,-0.0005
2993.00,-0.0009
2992.00,-0.0013
2991.00,-0.0015
2990.00,-0.0018
2989.00,-0.0020
2988.00,-0.0022
2987.00,-0.0025
2986.00,-0.0029
2985.00,-0.0036
2984.00,-0.0044
2983.00,-0.0053
2982.00,-0.0059
2981.00,-0.0061
2980.00,-0.0059
2979.00,-0.0055
2978.00,-0.0050
2977.00,-0.0045
2976.00,-0.0042
2975.00,-0.0039
2974.00,-0.0039
2973.00,-0.0039
2972.00,-0.0039
2971.00,-0.0038
2970.00,-0.0035
2969.00,-0.0030
2968.00,-0.0025
2967.00,-0.0021
2966.00,-0.0017
2965.00,-0.0013
2964.00,-0.0010
2963.00,-0.0006
2962.00,-0.0003
2961.00,0.0001
2960.00,0.0004
2959.00,0.0008
2958.00,0.0012
2957.00,0.0016
2956.00,0.0020
2955.00,0.0025
2954.00,0.0029
2953.00,0.0034
2952.00,0.0039
2951.00,0.0044
2950.00,0.0049
2949.00,0.0055
2948.00,0.0062
2947.00,0.0069
2946.00,0.0076
2945.00,0.0084
2944.00,0.0091
2943.00,0.0099
2942.00,0.0107
2941.00,0.0115
2940.00,0.0124
2939.00,0.0133
2938.00,0.0142
2937.00,0.0152
2936.00,0.0162
2935.00,0.0172
2934.00,0.0183
2933.00,0.0193
2932.00,0.0204
2931.00,0.0214
2930.00,0.0224
2929.00,0.0234
2928.00,0.0243
2927.00,0.0251
2926.00,0.0258
2925.00,0.0263
2924.00,0.0267
2923.00,0.0270
2922.00,0.0272
2921.00,0.0272
2920.00,0.0271
2919.00,0.0269
2918.00,0.0266
2917.00,0.0262
2916.00,0.0257
2915.00,0.0251
2914.00,0.0245
2913.00,0.0238
2912.00,0.0230
2911.00,0.0223
2910.00,0.0215
2909.00,0.0207
2908.00,0.0199
2907.00,0.0191
2906.00,0.0184
2905.00,0.0176
2904.00,0.0168
2903.00,0.0160
2902.00,0.0153
2901.00,0.0145
2900.00,0.0137
2899.00,0.0130
2898.00,0.0123
2897.00,0.0116
2896.00,0.0110
2895.00,0.0104
2894.00,0.0099
2893.00,0.0094
2892.00,0.0089
2891.00,0.0085
2890.00,0.0081
2889.00,0.0078
2888.00,0.0076
2887.00,0.0073
2886.00,0.0071
2885.00,0.0068
2884.00,0.0066
2883.00,0.0065
2882.00,0.0064
2881.00,0.0063
2880.00,0.0063
2879.00,0.0062
2878.00,0.0061
2877.00,0.0060
2876.00,0.0059
2875.00,0.0058
2874.00,0.0057
2873.00,0.0056
2872.00,0.0056
2871.00,0.0055
2870.00,0.0055
2869.00,0.0056
2868.00,0.0057
2867.00,0.0058
2866.00,0.0060
2865.00,0.0062
2864.00,0.0065
2863.00,0.0068
2862.00,0.0072
2861.00,0.0076
2860.00,0.0081
2859.00,0.0086
2858.00,0.0091
2857.00,0.0096
2856.00,0.0101
2855.00,0.0106
2854.00,0.0111
2853.00,0.0115
2852.00,0.0119
2851.00,0.0122
2850.00,0.0124
2849.00,0.0125
2848.00,0.0124
2847.00,0.0122
2846.00,0.0119
2845.00,0.0114
2844.00,0.0109
2843.00,0.0102
2842.00,0.0095
2841.00,0.0088
2840.00,0.0080
2839.00,0.0073
2838.00,0.0066
2837.00,0.0060
2836.00,0.0055
2835.00,0.0050
2834.00,0.0046
2833.00,0.0042
2832.00,0.0039
2831.00,0.0037
2830.00,0.0035
2829.00,0.0034
2828.00,0.0033
2827.00,0.0032
2826.00,0.0031
2825.00,0.0030
2824.00,0.0030
2823.00,0.0029
2822.00,0.0029
2821.00,0.0028
2820.00,0.0028
2819.00,0.0027
2818.00,0.0027
2817.00,0.0027
2816.00,0.0027
2815.00,0.0027
2814.00,0.0027
2813.00,0.0027
2812.00,0.0027
2811.00,0.0027
2810.00,0.0027
2809.00,0.0027
2808.00,0.0027
2807.00,0.0026
2806.00,0.0026
2805.00,0.0026
2804.00,0.0026
2803.00,0.0026
2802.00,0.0026
2801.00,0.0025
2800.00,0.0025
2799.00,0.0024
2798.00,0.0024
2797.00,0.0024
2796.00,0.0023
2795.00,0.0023
2794.00,0.0023
2793.00,0.0023
2792.00,0.0023
2791.00,0.0023
2790.00,0.0023
2789.00,0.0023
2788.00,0.0023
2787.00,0.0023
2786.00,0.0023
2785.00,0.0023
2784.00,0.0023
2783.00,0.0023
2782.00,0.0023
2781.00,0.0023
2780.00,0.0023
2779.00,0.0023
2778.00,0.0022
2777.00,0.0022
2776.00,0.0022
2775.00,0.0022
2774.00,0.0022
2773.00,0.0022
2772.00,0.0022
2771.00,0.0022
2770.00,0.0021
2769.00,0.0021
2768.00,0.0021
2767.00,0.0021
2766.00,0.0021
2765.00,0.0021
2764.00,0.0021
2763.00,0.0021
2762.00,0.0021
2761.00,0.0021
2760.00,0.0021
2759.00,0.0021
2758.00,0.0021
2757.00,0.0021
2756.00,0.0021
2755.00,0.0021
2754.00,0.0021
2753.00,0.0021
2752.00,0.0021
2751.00,0.0020
2750.00,0.0020
2749.00,0.0020
2748.00,0.0020
2747.00,0.0020
2746.00,0.0020
2745.00,0.0020
2744.00,0.0020
2743.00,0.0020
2742.00,0.0020
2741.00,0.0021
2740.00,0.0021
2739.00,0.0021
2738.00,0.0021
2737.00,0.0021
2736.00,0.0021
2735.00,0.0021
2734.00,0.0021
2733.00,0.0021
2732.00,0.0020
2731.00,0.0020
2730.00,0.0021
2729.00,0.0021
2728.00,0.0021
2727.00,0.0021
2726.00,0.0021
2725.00,0.0021
2724.00,0.0021
2723.00,0.0021
2722.00,0.0021
2721.00,0.0021
2720.00,0.0021
2719.00,0.0021
2718.00,0.0021
2717.00,0.0021
2716.00,0.0021
2715.00,0.0021
2714.00,0.0021
2713.00,0.0021
2712.00,0.0021
2711.00,0.0021
2710.00,0.0021
2709.00,0.0021
2708.00,0.0021
2707.00,0.0021
2706.00,0.0021
2705.00,0.0021
2704.00,0.0021
2703.00,0.0021
2702.00,0.0021
2701.00,0.0021
2700.00,0.0021
2699.00,0.0021
2698.00,0.0021
2697.00,0.0021
2696.00,0.0021
2695.00,0.0021
2694.00,0.0021
2693.00,0.0021
2692.00,0.0021
2691.00,0.0021
2690.00,0.0021
2689.00,0.0021
2688.00,0.0021
2687.00,0.0021
2686.00,0.0021
2685.00,0.0021
2684.00,0.0021
2683.00,0.0021
2682.00,0.0021
2681.00,0.0021
2680.00,0.0021
2679.00,0.0021
2678.00,0.0021
2677.00,0.0021
2676.00,0.0021
2675.00,0.0021
2674.00,0.0021
2673.00,0.0021
2672.00,0.0021
2671.00,0.0021
2670.00,0.0021
2669.00,0.0021
2668.00,0.0021
2667.00,0.0021
2666.00,0.0021
2665.00,0.0022
2664.00,0.0022
2663.00,0.0023
2662.00,0.0023
2661.00,0.0024
2660.00,0.0024
2659.00,0.0025
2658.00,0.0025
2657.00,0.0025
2656.00,0.0025
2655.00,0.0025
2654.00,0.0025
2653.00,0.0025
2652.00,0.0025
2651.00,0.0025
2650.00,0.0025
2649.00,0.0025
2648.00,0.0025
2647.00,0.0025
2646.00,0.0025
2645.00,0.0025
2644.00,0.0025
2643.00,0.0025
2642.00,0.0026
2641.00,0.0025
2640.00,0.0025
2639.00,0.0025
2638.00,0.0025
2637.00,0.0026
2636.00,0.0026
2635.00,0.0026
2634.00,0.0026
2633.00,0.0026
2632.00,0.0026
2631.00,0.0026
2630.00,0.0026
2629.00,0.0026
2628.00,0.0026
2627.00,0.0026
2626.00,0.0025
2625.00,0.0025
2624.00,0.0025
2623.00,0.0024
2622.00,0.0024
2621.00,0.0024
2620.00,0.0024
2619.00,0.0024
2618.00,0.0024
2617.00,0.0023
2616.00,0.0023
2615.00,0.0023
2614.00,0.0023
2613.00,0.0023
2612.00,0.0023
2611.00,0.0024
2610.00,0.0024
2609.00,0.0024
2608.00,0.0024
2607.00,0.0024
2606.00,0.0024
2605.00,0.0024
2604.00,0.0024
2603.00,0.0024
2602.00,0.0024
2601.00,0.0024
2600.00,0.0024
2599.00,0.0024
2598.00,0.0023
2597.00,0.0023
2596.00,0.0023
2595.00,0.0023
2594.00,0.0023
2593.00,0.0022
2592.00,0.0022
2591.00,0.0022
2590.00,0.0022
2589.00,0.0022
2588.00,0.0022
2587.00,0.0022
2586.00,0.0022
2585.00,0.0022
2584.00,0.0022
2583.00,0.0022
2582.00,0.0022
2581.00,0.0022
2580.00,0.0022
2579.00,0.0022
2578.00,0.0021
2577.00,0.0021
2576.00,0.0020
2575.00,0.0020
2574.00,0.0020
2573.00,0.0020
2572.00,0.0020
2571.00,0.0020
2570.00,0.0020
2569.00,0.0020
2568.00,0.0020
2567.00,0.0020
2566.00,0.0019
2565.00,0.0019
2564.00,0.0019
2563.00,0.0019
2562.00,0.0019
2561.00,0.0019
2560.00,0.0020
2559.00,0.0019
2558.00,0.0019
2557.00,0.0019
2556.00,0.0019
2555.00,0.0019
2554.00,0.0019
2553.00,0.0019
2552.00,0.0019
2551.00,0.0019
2550.00,0.0020
2549.00,0.0019
2548.00,0.0019
2547.00,0.0019
2546.00,0.0019
2545.00,0.0019
2544.00,0.0019
2543.00,0.0019
2542.00,0.0018
2541.00,0.0018
2540.00,0.0018
2539.00,0.0018
2538.00,0.0018
2537.00,0.0018
2536.00,0.0018
2535.00,0.0018
2534.00,0.0018
2533.00,0.0019
2532.00,0.0019
2531.00,0.0019
2530.00,0.0019
2529.00,0.0018
2528.00,0.0018
2527.00,0.0018
2526.00,0.0018
2525.00,0.0018
2524.00,0.0018
2523.00,0.0018
2522.00,0.0018
2521.00,0.0018
2520.00,0.0018
2519.00,0.0018
2518.00,0.0018
2517.00,0.0018
2516.00,0.0018
2515.00,0.0018
2514.00,0.0018
2513.00,0.0018
2512.00,0.0018
2511.00,0.0018
2510.00,0.0018
2509.00,0.0018
2508.00,0.0018
2507.00,0.0018
2506.00,0.0018
2505.00,0.0018
2504.00,0.0018
2503.00,0.0018
2502.00,0.0018
2501.00,0.0018
2500.00,0.0018
2499.00,0.0018
2498.00,0.0018
2497.00,0.0018
2496.00,0.0018
2495.00,0.0018
2494.00,0.0018
2493.00,0.0018
2492.00,0.0018
2491.00,0.0017
2490.00,0.0017
2489.00,0.0017
2488.00,0.0017
2487.00,0.0017
2486.00,0.0017
2485.00,0.0017
2484.00,0.0017
2483.00,0.0017
2482.00,0.0017
2481.00,0.0017
2480.00,0.0017
2479.00,0.0017
2478.00,0.0016
2477.00,0.0016
2476.00,0.0016
2475.00,0.0016
2474.00,0.0016
2473.00,0.0016
2472.00,0.0016
2471.00,0.0017
2470.00,0.0017
2469.00,0.0017
2468.00,0.0017
2467.00,0.0017
2466.00,0.0017
2465.00,0.0017
2464.00,0.0017
2463.00,0.0018
2462.00,0.0018
2461.00,0.0018
2460.00,0.0018
2459.00,0.0018
2458.00,0.0018
2457.00,0.0018
2456.00,0.0018
2455.00,0.0018
2454.00,0.0018
2453.00,0.0017
2452.00,0.0017
2451.00,0.0017
2450.00,0.0017
2449.00,0.0017
2448.00,0.0017
2447.00,0.0017
2446.00,0.0017
2445.00,0.0017
2444.00,0.0016
2443.00,0.0016
2442.00,0.0016
2441.00,0.0016
2440.00,0.0016
2439.00,0.0016
2438.00,0.0016
2437.00,0.0016
2436.00,0.0016
2435.00,0.0016
2434.00,0.0016
2433.00,0.0016
2432.00,0.0015
2431.00,0.0015
2430.00,0.0015
2429.00,0.0015
2428.00,0.0014
2427.00,0.0014
2426.00,0.0014
2425.00,0.0015
2424.00,0.0015
2423.00,0.0015
2422.00,0.0015
2421.00,0.0014
2420.00,0.0014
2419.00,0.0014
2418.00,0.0014
2417.00,0.0014
2416.00,0.0014
2415.00,0.0014
2414.00,0.0014
2413.00,0.0015
2412.00,0.0015
2411.00,0.0015
2410.00,0.0014
2409.00,0.0013
2408.00,0.0013
2407.00,0.0013
2406.00,0.0013
2405.00,0.0013
2404.00,0.0013
2403.00,0.0014
2402.00,0.0014
2401.00,0.0014
2400.00,0.0013
2399.00,0.0013
2398.00,0.0013
2397.00,0.0013
2396.00,0.0013
2395.00,0.0013
2394.00,0.0013
2393.00,0.0013
2392.00,0.0013
2391.00,0.0013
2390.00,0.0013
2389.00,0.0013
2388.00,0.0013
2387.00,0.0012
2386.00,0.0012
2385.00,0.0012
2384.00,0.0012
2383.00,0.0013
2382.00,0.0013
2381.00,0.0013
2380.00,0.0013
2379.00,0.0013
2378.00,0.0013
2377.00,0.0013
2376.00,0.0013
2375.00,0.0013
2374.00,0.0013
2373.00,0.0013
2372.00,0.0013
2371.00,0.0012
2370.00,0.0012
2369.00,0.0012
2368.00,0.0012
2367.00,0.0012
2366.00,0.0012
2365.00,0.0013
2364.00,0.0014
2363.00,0.0015
2362.00,0.0015
2361.00,0.0015
2360.00,0.0015
2359.00,0.0015
2358.00,0.0015
2357.00,0.0015
2356.00,0.0014
2355.00,0.0014
2354.00,0.0013
2353.00,0.0013
2352.00,0.0013
2351.00,0.0013
2350.00,0.0014
2349.00,0.0016
2348.00,0.0018
2347.00,0.0020
2346.00,0.0021
2345.00,0.0021
2344.00,0.0021
2343.00,0.0020
2342.00,0.0020
2341.00,0.0020
2340.00,0.0020
2339.00,0.0020
2338.00,0.0021
2337.00,0.0020
2336.00,0.0020
2335.00,0.0020
2334.00,0.0019
2333.00,0.0019
2332.00,0.0018
2331.00,0.0018
2330.00,0.0018
2329.00,0.0020
2328.00,0.0022
2327.00,0.0026
2326.00,0.0029
2325.00,0.0031
2324.00,0.0030
2323.00,0.0028
2322.00,0.0026
2321.00,0.0025
2320.00,0.0024
2319.00,0.0023
2318.00,0.0023
2317.00,0.0023
2316.00,0.0023
2315.00,0.0023
2314.00,0.0023
2313.00,0.0023
2312.00,0.0024
2311.00,0.0024
2310.00,0.0023
2309.00,0.0023
2308.00,0.0022
2307.00,0.0021
2306.00,0.0021
2305.00,0.0021
2304.00,0.0021
2303.00,0.0021
2302.00,0.0021
2301.00,0.0021
2300.00,0.0022
2299.00,0.0022
2298.00,0.0022
2297.00,0.0022
2296.00,0.0023
2295.00,0.0024
2294.00,0.0024
2293.00,0.0025
2292.00,0.0026
2291.00,0.0026
2290.00,0.0027
2289.00,0.0028
2288.00,0.0028
2287.00,0.0028
2286.00,0.0027
2285.00,0.0026
2284.00,0.0026
2283.00,0.0025
2282.00,0.0025
2281.00,0.0024
2280.00,0.0024
2279.00,0.0024
2278.00,0.0023
2277.00,0.0022
2276.00,0.0022
2275.00,0.0022
2274.00,0.0022
2273.00,0.0022
2272.00,0.0022
2271.00,0.0022
2270.00,0.0022
2269.00,0.0022
2268.00,0.0021
2267.00,0.0020
2266.00,0.0019
2265.00,0.0019
2264.00,0.0019
2263.00,0.0019
2262.00,0.0020
2261.00,0.0021
2260.00,0.0021
2259.00,0.0020
2258.00,0.0019
2257.00,0.0018
2256.00,0.0018
2255.00,0.0018
2254.00,0.0018
2253.00,0.0019
2252.00,0.0019
2251.00,0.0019
2250.00,0.0018
2249.00,0.0018
2248.00,0.0017
2247.00,0.0018
2246.00,0.0018
2245.00,0.0019
2244.00,0.0019
2243.00,0.0020
2242.00,0.0020
2241.00,0.0019
2240.00,0.0019
2239.00,0.0018
2238.00,0.0018
2237.00,0.0017
2236.00,0.0016
2235.00,0.0016
2234.00,0.0017
2233.00,0.0017
2232.00,0.0017
2231.00,0.0017
2230.00,0.0017
2229.00,0.0017
2228.00,0.0017
2227.00,0.0017
2226.00,0.0017
2225.00,0.0017
2224.00,0.0017
2223.00,0.0016
2222.00,0.0017
2221.00,0.0017
2220.00,0.0017
2219.00,0.0017
2218.00,0.0017
2217.00,0.0017
2216.00,0.0017
2215.00,0.0017
2214.00,0.0017
2213.00,0.0017
2212.00,0.0017
2211.00,0.0017
2210.00,0.0017
2209.00,0.0016
2208.00,0.0016
2207.00,0.0016
2206.00,0.0016
2205.00,0.0017
2204.00,0.0016
2203.00,0.0016
2202.00,0.0016
2201.00,0.0016
2200.00,0.0016
2199.00,0.0017
2198.00,0.0017
2197.00,0.0017
2196.00,0.0017
2195.00,0.0016
2194.00,0.0016
2193.00,0.0016
2192.00,0.0016
2191.00,0.0017
2190.00,0.0018
2189.00,0.0019
2188.00,0.0018
2187.00,0.0017
2186.00,0.0016
2185.00,0.0015
2184.00,0.0013
2183.00,0.0012
2182.00,0.0010
2181.00,0.0010
2180.00,0.0011
2179.00,0.0012
2178.00,0.0011
2177.00,0.0010
2176.00,0.0009
2175.00,0.0009
2174.00,0.0010
2173.00,0.0012
2172.00,0.0014
2171.00,0.0016
2170.00,0.0017
2169.00,0.0019
2168.00,0.0021
2167.00,0.0023
2166.00,0.0026
2165.00,0.0028
2164.00,0.0031
2163.00,0.0032
2162.00,0.0028
2161.00,0.0017
2160.00,0.0003
2159.00,-0.0009
2158.00,-0.0016
2157.00,-0.0017
2156.00,-0.0014
2155.00,-0.0011
2154.00,-0.0007
2153.00,-0.0005
2152.00,-0.0005
2151.00,-0.0005
2150.00,-0.0006
2149.00,-0.0005
2148.00,-0.0005
2147.00,-0.0004
2146.00,-0.0004
2145.00,-0.0004
2144.00,-0.0004
2143.00,-0.0004
2142.00,-0.0004
2141.00,-0.0004
2140.00,-0.0004
2139.00,-0.0004
2138.00,-0.0004
2137.00,-0.0006
2136.00,-0.0008
2135.00,-0.0009
2134.00,-0.0009
2133.00,-0.0007
2132.00,-0.0005
2131.00,-0.0003
2130.00,-0.0002
2129.00,-0.0002
2128.00,-0.0001
2127.00,-0.0000
2126.00,0.0001
2125.00,0.0002
2124.00,0.0004
2123.00,0.0005
2122.00,0.0007
2121.00,0.0008
2120.00,0.0009
2119.00,0.0009
2118.00,0.0009
2117.00,0.0010
2116.00,0.0011
2115.00,0.0013
2114.00,0.0013
2113.00,0.0014
2112.00,0.0014
2111.00,0.0013
2110.00,0.0013
2109.00,0.0012
2108.00,0.0011
2107.00,0.0011
2106.00,0.0011
2105.00,0.0011
2104.00,0.0011
2103.00,0.0011
2102.00,0.0010
2101.00,0.0011
2100.00,0.0011
2099.00,0.0011
2098.00,0.0011
2097.00,0.0010
2096.00,0.0008
2095.00,0.0007
2094.00,0.0007
2093.00,0.0008
2092.00,0.0009
2091.00,0.0011
2090.00,0.0012
2089.00,0.0012
2088.00,0.0013
2087.00,0.0013
2086.00,0.0013
2085.00,0.0012
2084.00,0.0012
2083.00,0.0012
2082.00,0.0013
2081.00,0.0013
2080.00,0.0014
2079.00,0.0014
2078.00,0.0014
2077.00,0.0014
2076.00,0.0014
2075.00,0.0014
2074.00,0.0013
2073.00,0.0013
2072.00,0.0013
2071.00,0.0012
2070.00,0.0011
2069.00,0.0010
2068.00,0.0010
2067.00,0.0009
2066.00,0.0009
2065.00,0.0010
2064.00,0.0010
2063.00,0.0010
2062.00,0.0010
2061.00,0.0010
2060.00,0.0010
2059.00,0.0010
2058.00,0.0010
2057.00,0.0010
2056.00,0.0010
2055.00,0.0010
2054.00,0.0012
2053.00,0.0016
2052.00,0.0020
2051.00,0.0022
2050.00,0.0020
2049.00,0.0017
2048.00,0.0015
2047.00,0.0013
2046.00,0.0012
2045.00,0.0011
2044.00,0.0010
2043.00,0.0010
2042.00,0.0009
2041.00,0.0008
2040.00,0.0009
2039.00,0.0010
2038.00,0.0012
2037.00,0.0012
2036.00,0.0012
2035.00,0.0010
2034.00,0.0008
2033.00,0.0007
2032.00,0.0006
2031.00,0.0006
2030.00,0.0007
2029.00,0.0007
2028.00,0.0008
2027.00,0.0008
2026.00,0.0007
2025.00,0.0005
2024.00,0.0005
2023.00,0.0005
2022.00,0.0006
2021.00,0.0007
2020.00,0.0007
2019.00,0.0006
2018.00,0.0006
2017.00,0.0005
2016.00,0.0005
2015.00,0.0005
2014.00,0.0005
2013.00,0.0005
2012.00,0.0006
2011.00,0.0007
2010.00,0.0007
2009.00,0.0005
2008.00,0.0002
2007.00,-0.0001
2006.00,-0.0002
2005.00,-0.0001
2004.00,-0.0001
2003.00,-0.0000
2002.00,0.0000
2001.00,0.0001
2000.00,0.0003
1999.00,0.0006
1998.00,0.0007
1997.00,0.0008
1996.00,0.0009
1995.00,0.0010
1994.00,0.0011
1993.00,0.0012
1992.00,0.0013
1991.00,0.0013
1990.00,0.0014
1989.00,0.0014
1988.00,0.0016
1987.00,0.0019
1986.00,0.0021
1985.00,0.0024
1984.00,0.0026
1983.00,0.0027
1982.00,0.0029
1981.00,0.0028
1980.00,0.0025
1979.00,0.0018
1978.00,0.0011
1977.00,0.0007
1976.00,0.0006
1975.00,0.0007
1974.00,0.0008
1973.00,0.0009
1972.00,0.0010
1971.00,0.0011
1970.00,0.0011
1969.00,0.0013
1968.00,0.0014
1967.00,0.0015
1966.00,0.0014
1965.00,0.0013
1964.00,0.0013
1963.00,0.0012
1962.00,0.0012
1961.00,0.0012
1960.00,0.0012
1959.00,0.0013
1958.00,0.0016
1957.00,0.0019
1956.00,0.0022
1955.00,0.0024
1954.00,0.0026
1953.00,0.0028
1952.00,0.0029
1951.00,0.0031
1950.00,0.0032
1949.00,0.0033
1948.00,0.0034
1947.00,0.0035
1946.00,0.0036
1945.00,0.0037
1944.00,0.0037
1943.00,0.0038
1942.00,0.0038
1941.00,0.0038
1940.00,0.0037
1939.00,0.0035
1938.00,0.0033
1937.00,0.0032
1936.00,0.0031
1935.00,0.0029
1934.00,0.0027
1933.00,0.0024
1932.00,0.0022
1931.00,0.0019
1930.00,0.0017
1929.00,0.0016
1928.00,0.0015
1927.00,0.0015
1926.00,0.0014
1925.00,0.0014
1924.00,0.0013
1923.00,0.0013
1922.00,0.0013
1921.00,0.0013
1920.00,0.0013
1919.00,0.0013
1918.00,0.0012
1917.00,0.0012
1916.00,0.0012
1915.00,0.0011
1914.00,0.0010
1913.00,0.0010
1912.00,0.0010
1911.00,0.0011
1910.00,0.0011
1909.00,0.0011
1908.00,0.0012
1907.00,0.0012
1906.00,0.0013
1905.00,0.0013
1904.00,0.0014
1903.00,0.0014
1902.00,0.0015
1901.00,0.0015
1900.00,0.0016
1899.00,0.0016
1898.00,0.0017
1897.00,0.0017
1896.00,0.0018
1895.00,0.0019
1894.00,0.0020
1893.00,0.0021
1892.00,0.0021
1891.00,0.0022
1890.00,0.0023
1889.00,0.0025
1888.00,0.0026
1887.00,0.0027
1886.00,0.0028
1885.00,0.0029
1884.00,0.0030
1883.00,0.0031
1882.00,0.0031
1881.00,0.0031
1880.00,0.0032
1879.00,0.0032
1878.00,0.0033
1877.00,0.0034
1876.00,0.0034
1875.00,0.0035
1874.00,0.0036
1873.00,0.0036
1872.00,0.0037
1871.00,0.0037
1870.00,0.0037
1869.00,0.0037
1868.00,0.0037
1867.00,0.0037
1866.00,0.0036
1865.00,0.0035
1864.00,0.0033
1863.00,0.0032
1862.00,0.0030
1861.00,0.0029
1860.00,0.0027
1859.00,0.0025
1858.00,0.0024
1857.00,0.0022
1856.00,0.0021
1855.00,0.0020
1854.00,0.0019
1853.00,0.0018
1852.00,0.0017
1851.00,0.0016
1850.00,0.0015
1849.00,0.0015
1848.00,0.0015
1847.00,0.0015
1846.00,0.0015
1845.00,0.0015
1844.00,0.0014
1843.00,0.0014
1842.00,0.0014
1841.00,0.0014
1840.00,0.0014
1839.00,0.0014
1838.00,0.0014
1837.00,0.0014
1836.00,0.0014
1835.00,0.0014
1834.00,0.0015
1833.00,0.0016
1832.00,0.0017
1831.00,0.0018
1830.00,0.0018
1829.00,0.0018
1828.00,0.0019
1827.00,0.0019
1826.00,0.0020
1825.00,0.0022
1824.00,0.0023
1823.00,0.0024
1822.00,0.0025
1821.00,0.0025
1820.00,0.0025
1819.00,0.0025
1818.00,0.0026
1817.00,0.0026
1816.00,0.0027
1815.00,0.0029
1814.00,0.0031
1813.00,0.0032
1812.00,0.0034
1811.00,0.0035
1810.00,0.0037
1809.00,0.0038
1808.00,0.0039
1807.00,0.0040
1806.00,0.0041
1805.00,0.0042
1804.00,0.0043
1803.00,0.0043
1802.00,0.0043
1801.00,0.0043
1800.00,0.0042
1799.00,0.0042
1798.00,0.0041
1797.00,0.0039
1796.00,0.0038
1795.00,0.0036
1794.00,0.0034
1793.00,0.0033
1792.00,0.0031
1791.00,0.0029
1790.00,0.0028
1789.00,0.0026
1788.00,0.0025
1787.00,0.0024
1786.00,0.0023
1785.00,0.0022
1784.00,0.0022
1783.00,0.0022
1782.00,0.0022
1781.00,0.0022
1780.00,0.0022
1779.00,0.0022
1778.00,0.0022
1777.00,0.0022
1776.00,0.0022
1775.00,0.0023
1774.00,0.0023
1773.00,0.0023
1772.00,0.0023
1771.00,0.0022
1770.00,0.0023
1769.00,0.0023
1768.00,0.0023
1767.00,0.0024
1766.00,0.0024
1765.00,0.0024
1764.00,0.0025
1763.00,0.0026
1762.00,0.0026
1761.00,0.0027
1760.00,0.0028
1759.00,0.0029
1758.00,0.0030
1757.00,0.0031
1756.00,0.0033
1755.00,0.0034
1754.00,0.0036
1753.00,0.0037
1752.00,0.0038
1751.00,0.0039
1750.00,0.0041
1749.00,0.0042
1748.00,0.0043
1747.00,0.0043
1746.00,0.0044
1745.00,0.0045
1744.00,0.0045
1743.00,0.0046
1742.00,0.0046
1741.00,0.0046
1740.00,0.0045
1739.00,0.0045
1738.00,0.0044
1737.00,0.0044
1736.00,0.0043
1735.00,0.0042
1734.00,0.0041
1733.00,0.0040
1732.00,0.0039
1731.00,0.0039
1730.00,0.0038
1729.00,0.0038
1728.00,0.0037
1727.00,0.0036
1726.00,0.0035
1725.00,0.0034
1724.00,0.0033
1723.00,0.0033
1722.00,0.0032
1721.00,0.0031
1720.00,0.0031
1719.00,0.0031
1718.00,0.0030
1717.00,0.0030
1716.00,0.0030
1715.00,0.0029
1714.00,0.0029
1713.00,0.0028
1712.00,0.0028
1711.00,0.0028
1710.00,0.0028
1709.00,0.0027
1708.00,0.0027
1707.00,0.0027
1706.00,0.0028
1705.00,0.0028
1704.00,0.0028
1703.00,0.0028
1702.00,0.0028
1701.00,0.0028
1700.00,0.0027
1699.00,0.0027
1698.00,0.0027
1697.00,0.0027
1696.00,0.0027
1695.00,0.0027
1694.00,0.0027
1693.00,0.0027
1692.00,0.0027
1691.00,0.0027
1690.00,0.0027
1689.00,0.0028
1688.00,0.0028
1687.00,0.0028
1686.00,0.0029
1685.00,0.0029
1684.00,0.0029
1683.00,0.0030
1682.00,0.0030
1681.00,0.0030
1680.00,0.0031
1679.00,0.0031
1678.00,0.0031
1677.00,0.0031
1676.00,0.0031
1675.00,0.0031
1674.00,0.0031
1673.00,0.0032
1672.00,0.0032
1671.00,0.0032
1670.00,0.0032
1669.00,0.0032
1668.00,0.0032
1667.00,0.0031
1666.00,0.0031
1665.00,0.0031
1664.00,0.0030
1663.00,0.0030
1662.00,0.0029
1661.00,0.0028
1660.00,0.0028
1659.00,0.0028
1658.00,0.0027
1657.00,0.0027
1656.00,0.0026
1655.00,0.0026
1654.00,0.0025
1653.00,0.0025
1652.00,0.0025
1651.00,0.0025
1650.00,0.0024
1649.00,0.0024
1648.00,0.0024
1647.00,0.0024
1646.00,0.0024
1645.00,0.0024
1644.00,0.0023
1643.00,0.0023
1642.00,0.0023
1641.00,0.0023
1640.00,0.0023
1639.00,0.0023
1638.00,0.0023
1637.00,0.0024
1636.00,0.0024
1635.00,0.0025
1634.00,0.0025
1633.00,0.0024
1632.00,0.0024
1631.00,0.0025
1630.00,0.0025
1629.00,0.0025
1628.00,0.0026
1627.00,0.0027
1626.00,0.0027
1625.00,0.0028
1624.00,0.0029
1623.00,0.0030
1622.00,0.0030
1621.00,0.0031
1620.00,0.0032
1619.00,0.0033
1618.00,0.0034
1617.00,0.0036
1616.00,0.0038
1615.00,0.0040
1614.00,0.0043
1613.00,0.0046
1612.00,0.0051
1611.00,0.0058
1610.00,0.0067
1609.00,0.0080
1608.00,0.0098
1607.00,0.0119
1606.00,0.0145
1605.00,0.0173
1604.00,0.0201
1603.00,0.0227
1602.00,0.0244
1601.00,0.0250
1600.00,0.0243
1599.00,0.0225
1598.00,0.0200
1597.00,0.0174
1596.00,0.0149
1595.00,0.0129
1594.00,0.0113
1593.00,0.0100
1592.00,0.0091
1591.00,0.0083
1590.00,0.0078
1589.00,0.0076
1588.00,0.0077
1587.00,0.0081
1586.00,0.0089
1585.00,0.0099
1584.00,0.0106
1583.00,0.0108
1582.00,0.0104
1581.00,0.0094
1580.00,0.0083
1579.00,0.0073
1578.00,0.0064
1577.00,0.0057
1576.00,0.0051
1575.00,0.0046
1574.00,0.0043
1573.00,0.0041
1572.00,0.0039
1571.00,0.0037
1570.00,0.0036
1569.00,0.0035
1568.00,0.0034
1567.00,0.0033
1566.00,0.0032
1565.00,0.0032
1564.00,0.0031
1563.00,0.0032
1562.00,0.0032
1561.00,0.0032
1560.00,0.0033
1559.00,0.0033
1558.00,0.0033
1557.00,0.0033
1556.00,0.0033
1555.00,0.0034
1554.00,0.0035
1553.00,0.0036
1552.00,0.0037
1551.00,0.0038
1550.00,0.0040
1549.00,0.0041
1548.00,0.0042
1547.00,0.0043
1546.00,0.0044
1545.00,0.0045
1544.00,0.0046
1543.00,0.0047
1542.00,0.0047
1541.00,0.0047
1540.00,0.0047
1539.00,0.0046
1538.00,0.0045
1537.00,0.0044
1536.00,0.0043
1535.00,0.0042
1534.00,0.0040
1533.00,0.0039
1532.00,0.0038
1531.00,0.0036
1530.00,0.0035
1529.00,0.0034
1528.00,0.0034
1527.00,0.0033
1526.00,0.0033
1525.00,0.0032
1524.00,0.0032
1523.00,0.0031
1522.00,0.0031
1521.00,0.0031
1520.00,0.0031
1519.00,0.0032
1518.00,0.0032
1517.00,0.0032
1516.00,0.0033
1515.00,0.0033
1514.00,0.0034
1513.00,0.0035
1512.00,0.0035
1511.00,0.0036
1510.00,0.0038
1509.00,0.0039
1508.00,0.0041
1507.00,0.0043
1506.00,0.0047
1505.00,0.0052
1504.00,0.0057
1503.00,0.0063
1502.00,0.0072
1501.00,0.0086
1500.00,0.0106
1499.00,0.0138
1498.00,0.0188
1497.00,0.0265
1496.00,0.0366
1495.00,0.0474
1494.00,0.0564
1493.00,0.0615
1492.00,0.0616
1491.00,0.0562
1490.00,0.0470
1489.00,0.0373
1488.00,0.0294
1487.00,0.0236
1486.00,0.0193
1485.00,0.0161
1484.00,0.0136
1483.00,0.0116
1482.00,0.0101
1481.00,0.0089
1480.00,0.0080
1479.00,0.0073
1478.00,0.0068
1477.00,0.0064
1476.00,0.0061
1475.00,0.0058
1474.00,0.0055
1473.00,0.0053
1472.00,0.0053
1471.00,0.0054
1470.00,0.0056
1469.00,0.0057
1468.00,0.0059
1467.00,0.0061
1466.00,0.0062
1465.00,0.0064
1464.00,0.0067
1463.00,0.0071
1462.00,0.0078
1461.00,0.0087
1460.00,0.0102
1459.00,0.0125
1458.00,0.0169
1457.00,0.0243
1456.00,0.0341
1455.00,0.0441
1454.00,0.0528
1453.00,0.0594
1452.00,0.0627
1451.00,0.0622
1450.00,0.0587
1449.00,0.0537
1448.00,0.0487
1447.00,0.0442
1446.00,0.0405
1445.00,0.0373
1444.00,0.0343
1443.00,0.0314
1442.00,0.0287
1441.00,0.0263
1440.00,0.0242
1439.00,0.0224
1438.00,0.0204
1437.00,0.0183
1436.00,0.0162
1435.00,0.0144
1434.00,0.0130
1433.00,0.0118
1432.00,0.0107
1431.00,0.0096
1430.00,0.0087
1429.00,0.0079
1428.00,0.0073
1427.00,0.0068
1426.00,0.0065
1425.00,0.0062
1424.00,0.0059
1423.00,0.0057
1422.00,0.0055
1421.00,0.0054
1420.00,0.0052
1419.00,0.0051
1418.00,0.0049
1417.00,0.0048
1416.00,0.0047
1415.00,0.0046
1414.00,0.0045
1413.00,0.0044
1412.00,0.0043
1411.00,0.0042
1410.00,0.0041
1409.00,0.0040
1408.00,0.0039
1407.00,0.0038
1406.00,0.0037
1405.00,0.0036
1404.00,0.0034
1403.00,0.0033
1402.00,0.0032
1401.00,0.0030
1400.00,0.0029
1399.00,0.0027
1398.00,0.0027
1397.00,0.0026
1396.00,0.0026
1395.00,0.0027
1394.00,0.0028
1393.00,0.0030
1392.00,0.0033
1391.00,0.0036
1390.00,0.0040
1389.00,0.0044
1388.00,0.0048
1387.00,0.0052
1386.00,0.0056
1385.00,0.0060
1384.00,0.0064
1383.00,0.0068
1382.00,0.0071
1381.00,0.0075
1380.00,0.0080
1379.00,0.0085
1378.00,0.0090
1377.00,0.0095
1376.00,0.0099
1375.00,0.0104
1374.00,0.0107
1373.00,0.0110
1372.00,0.0112
1371.00,0.0113
1370.00,0.0114
1369.00,0.0115
1368.00,0.0115
1367.00,0.0115
1366.00,0.0115
1365.00,0.0114
1364.00,0.0114
1363.00,0.0113
1362.00,0.0112
1361.00,0.0111
1360.00,0.0110
1359.00,0.0109
1358.00,0.0107
1357.00,0.0106
1356.00,0.0105
1355.00,0.0104
1354.00,0.0104
1353.00,0.0104
1352.00,0.0105
1351.00,0.0105
1350.00,0.0105
1349.00,0.0105
1348.00,0.0104
1347.00,0.0103
1346.00,0.0102
1345.00,0.0101
1344.00,0.0099
1343.00,0.0097
1342.00,0.0095
1341.00,0.0093
1340.00,0.0092
1339.00,0.0091
1338.00,0.0091
1337.00,0.0092
1336.00,0.0094
1335.00,0.0096
1334.00,0.0098
1333.00,0.0101
1332.00,0.0105
1331.00,0.0108
1330.00,0.0110
1329.00,0.0112
1328.00,0.0112
1327.00,0.0112
1326.00,0.0110
1325.00,0.0109
1324.00,0.0107
1323.00,0.0106
1322.00,0.0105
1321.00,0.0104
1320.00,0.0104
1319.00,0.0104
1318.00,0.0105
1317.00,0.0106
1316.00,0.0107
1315.00,0.0109
1314.00,0.0110
1313.00,0.0111
1312.00,0.0111
1311.00,0.0111
1310.00,0.0110
1309.00,0.0109
1308.00,0.0107
1307.00,0.0106
1306.00,0.0104
1305.00,0.0102
1304.00,0.0099
1303.00,0.0098
1302.00,0.0096
1301.00,0.0094
1300.00,0.0092
1299.00,0.0090
1298.00,0.0089
1297.00,0.0087
1296.00,0.0086
1295.00,0.0086
1294.00,0.0085
1293.00,0.0084
1292.00,0.0083
1291.00,0.0083
1290.00,0.0082
1289.00,0.0081
1288.00,0.0079
1287.00,0.0078
1286.00,0.0078
1285.00,0.0077
1284.00,0.0077
1283.00,0.0076
1282.00,0.0075
1281.00,0.0075
1280.00,0.0074
1279.00,0.0072
1278.00,0.0071
1277.00,0.0068
1276.00,0.0066
1275.00,0.0063
1274.00,0.0061
1273.00,0.0059
1272.00,0.0057
1271.00,0.0055
1270.00,0.0052
1269.00,0.0050
1268.00,0.0049
1267.00,0.0047
1266.00,0.0046
1265.00,0.0045
1264.00,0.0044
1263.00,0.0043
1262.00,0.0043
1261.00,0.0042
1260.00,0.0041
1259.00,0.0041
1258.00,0.0041
1257.00,0.0040
1256.00,0.0040
1255.00,0.0040
1254.00,0.0040
1253.00,0.0040
1252.00,0.0040
1251.00,0.0041
1250.00,0.0041
1249.00,0.0042
1248.00,0.0043
1247.00,0.0044
1246.00,0.0045
1245.00,0.0046
1244.00,0.0046
1243.00,0.0046
1242.00,0.0046
1241.00,0.0046
1240.00,0.0046
1239.00,0.0046
1238.00,0.0046
1237.00,0.0046
1236.00,0.0046
1235.00,0.0047
1234.00,0.0047
1233.00,0.0048
1232.00,0.0049
1231.00,0.0050
1230.00,0.0050
1229.00,0.0051
1228.00,0.0052
1227.00,0.0053
1226.00,0.0054
1225.00,0.0054
1224.00,0.0055
1223.00,0.0055
1222.00,0.0056
1221.00,0.0056
1220.00,0.0056
1219.00,0.0057
1218.00,0.0057
1217.00,0.0058
1216.00,0.0059
1215.00,0.0060
1214.00,0.0061
1213.00,0.0062
1212.00,0.0063
1211.00,0.0064
1210.00,0.0066
1209.00,0.0068
1208.00,0.0070
1207.00,0.0072
1206.00,0.0074
1205.00,0.0076
1204.00,0.0078
1203.00,0.0081
1202.00,0.0083
1201.00,0.0086
1200.00,0.0088
1199.00,0.0090
1198.00,0.0091
1197.00,0.0092
1196.00,0.0093
1195.00,0.0093
1194.00,0.0093
1193.00,0.0093
1192.00,0.0094
1191.00,0.0094
1190.00,0.0094
1189.00,0.0095
1188.00,0.0096
1187.00,0.0099
1186.00,0.0103
1185.00,0.0108
1184.00,0.0114
1183.00,0.0119
1182.00,0.0122
1181.00,0.0122
1180.00,0.0118
1179.00,0.0111
1178.00,0.0101
1177.00,0.0091
1176.00,0.0081
1175.00,0.0073
1174.00,0.0067
1173.00,0.0062
1172.00,0.0059
1171.00,0.0056
1170.00,0.0053
1169.00,0.0052
1168.00,0.0051
1167.00,0.0050
1166.00,0.0049
1165.00,0.0049
1164.00,0.0049
1163.00,0.0051
1162.00,0.0053
1161.00,0.0058
1160.00,0.0065
1159.00,0.0073
1158.00,0.0082
1157.00,0.0092
1156.00,0.0100
1155.00,0.0104
1154.00,0.0103
1153.00,0.0098
1152.00,0.0089
1151.00,0.0078
1150.00,0.0068
1149.00,0.0058
1148.00,0.0050
1147.00,0.0045
1146.00,0.0041
1145.00,0.0038
1144.00,0.0035
1143.00,0.0033
1142.00,0.0031
1141.00,0.0030
1140.00,0.0028
1139.00,0.0028
1138.00,0.0027
1137.00,0.0027
1136.00,0.0027
1135.00,0.0028
1134.00,0.0028
1133.00,0.0028
1132.00,0.0028
1131.00,0.0028
1130.00,0.0029
1129.00,0.0030
1128.00,0.0031
1127.00,0.0032
1126.00,0.0033
1125.00,0.0034
1124.00,0.0035
1123.00,0.0037
1122.00,0.0039
1121.00,0.0041
1120.00,0.0044
1119.00,0.0046
1118.00,0.0049
1117.00,0.0052
1116.00,0.0055
1115.00,0.0058
1114.00,0.0059
1113.00,0.0061
1112.00,0.0062
1111.00,0.0062
1110.00,0.0062
1109.00,0.0062
1108.00,0.0061
1107.00,0.0061
1106.00,0.0060
1105.00,0.0060
1104.00,0.0060
1103.00,0.0060
1102.00,0.0060
1101.00,0.0061
1100.00,0.0061
1099.00,0.0062
1098.00,0.0063
1097.00,0.0064
1096.00,0.0065
1095.00,0.0065
1094.00,0.0066
1093.00,0.0067
1092.00,0.0067
1091.00,0.0068
1090.00,0.0068
1089.00,0.0070
1088.00,0.0072
1087.00,0.0074
1086.00,0.0077
1085.00,0.0080
1084.00,0.0084
1083.00,0.0088
1082.00,0.0092
1081.00,0.0097
1080.00,0.0101
1079.00,0.0105
1078.00,0.0110
1077.00,0.0115
1076.00,0.0122
1075.00,0.0129
1074.00,0.0137
1073.00,0.0145
1072.00,0.0153
1071.00,0.0160
1070.00,0.0165
1069.00,0.0167
1068.00,0.0168
1067.00,0.0165
1066.00,0.0160
1065.00,0.0154
1064.00,0.0147
1063.00,0.0140
1062.00,0.0133
1061.00,0.0127
1060.00,0.0121
1059.00,0.0115
1058.00,0.0111
1057.00,0.0107
1056.00,0.0105
1055.00,0.0102
1054.00,0.0100
1053.00,0.0098
1052.00,0.0096
1051.00,0.0094
1050.00,0.0093
1049.00,0.0091
1048.00,0.0091
1047.00,0.0090
1046.00,0.0089
1045.00,0.0089
1044.00,0.0089
1043.00,0.0089
1042.00,0.0090
1041.00,0.0093
1040.00,0.0096
1039.00,0.0101
1038.00,0.0109
1037.00,0.0122
1036.00,0.0139
1035.00,0.0163
1034.00,0.0192
1033.00,0.0223
1032.00,0.0255
1031.00,0.0285
1030.00,0.0309
1029.00,0.0325
1028.00,0.0331
1027.00,0.0327
1026.00,0.0312
1025.00,0.0290
1024.00,0.0266
1023.00,0.0243
1022.00,0.0224
1021.00,0.0207
1020.00,0.0194
1019.00,0.0183
1018.00,0.0173
1017.00,0.0165
1016.00,0.0157
1015.00,0.0151
1014.00,0.0145
1013.00,0.0140
1012.00,0.0136
1011.00,0.0133
1010.00,0.0130
1009.00,0.0129
1008.00,0.0129
1007.00,0.0130
1006.00,0.0134
1005.00,0.0138
1004.00,0.0140
1003.00,0.0140
1002.00,0.0137
1001.00,0.0130
1000.00,0.0121
999.00,0.0113
998.00,0.0107
997.00,0.0102
996.00,0.0100
995.00,0.0098
994.00,0.0098
993.00,0.0098
992.00,0.0098
991.00,0.0098
990.00,0.0100
989.00,0.0101
988.00,0.0103
987.00,0.0106
986.00,0.0109
985.00,0.0112
984.00,0.0116
983.00,0.0118
982.00,0.0120
981.00,0.0121
980.00,0.0121
979.00,0.0120
978.00,0.0117
977.00,0.0114
976.00,0.0110
975.00,0.0105
974.00,0.0101
973.00,0.0098
972.00,0.0096
971.00,0.0097
970.00,0.0098
969.00,0.0101
968.00,0.0105
967.00,0.0109
966.00,0.0113
965.00,0.0115
964.00,0.0116
963.00,0.0114
962.00,0.0111
961.00,0.0105
960.00,0.0098
959.00,0.0091
958.00,0.0084
957.00,0.0078
956.00,0.0074
955.00,0.0071
954.00,0.0069
953.00,0.0068
952.00,0.0068
951.00,0.0070
950.00,0.0072
949.00,0.0074
948.00,0.0077
947.00,0.0079
946.00,0.0081
945.00,0.0084
944.00,0.0085
943.00,0.0086
942.00,0.0086
941.00,0.0086
940.00,0.0084
939.00,0.0082
938.00,0.0080
937.00,0.0077
936.00,0.0075
935.00,0.0072
934.00,0.0070
933.00,0.0069
932.00,0.0068
931.00,0.0068
930.00,0.0068
929.00,0.0068
928.00,0.0069
927.00,0.0070
926.00,0.0071
925.00,0.0073
924.00,0.0075
923.00,0.0078
922.00,0.0081
921.00,0.0084
920.00,0.0088
919.00,0.0093
918.00,0.0099
917.00,0.0107
916.00,0.0116
915.00,0.0127
914.00,0.0139
913.00,0.0153
912.00,0.0168
911.00,0.0184
910.00,0.0200
909.00,0.0214
908.00,0.0224
907.00,0.0231
906.00,0.0232
905.00,0.0228
904.00,0.0218
903.00,0.0205
902.00,0.0188
901.00,0.0171
900.00,0.0153
899.00,0.0137
898.00,0.0123
897.00,0.0111
896.00,0.0101
895.00,0.0094
894.00,0.0088
893.00,0.0084
892.00,0.0080
891.00,0.0077
890.00,0.0075
889.00,0.0073
888.00,0.0072
887.00,0.0070
886.00,0.0067
885.00,0.0065
884.00,0.0063
883.00,0.0062
882.00,0.0061
881.00,0.0061
880.00,0.0060
879.00,0.0059
878.00,0.0059
877.00,0.0058
876.00,0.0057
875.00,0.0056
874.00,0.0056
873.00,0.0055
872.00,0.0055
871.00,0.0054
870.00,0.0054
869.00,0.0054
868.00,0.0054
867.00,0.0054
866.00,0.0054
865.00,0.0054
864.00,0.0054
863.00,0.0054
862.00,0.0054
861.00,0.0054
860.00,0.0055
859.00,0.0055
858.00,0.0056
857.00,0.0056
856.00,0.0057
855.00,0.0058
854.00,0.0060
853.00,0.0063
852.00,0.0067
851.00,0.0072
850.00,0.0077
849.00,0.0082
848.00,0.0089
847.00,0.0096
846.00,0.0102
845.00,0.0108
844.00,0.0113
843.00,0.0116
842.00,0.0118
841.00,0.0118
840.00,0.0115
839.00,0.0111
838.00,0.0104
837.00,0.0096
836.00,0.0088
835.00,0.0080
834.00,0.0073
833.00,0.0066
832.00,0.0061
831.00,0.0057
830.00,0.0054
829.00,0.0052
828.00,0.0051
827.00,0.0050
826.00,0.0049
825.00,0.0048
824.00,0.0048
823.00,0.0047
822.00,0.0047
821.00,0.0047
820.00,0.0048
819.00,0.0048
818.00,0.0048
817.00,0.0048
816.00,0.0048
815.00,0.0048
814.00,0.0049
813.00,0.0049
812.00,0.0050
811.00,0.0052
810.00,0.0052
809.00,0.0053
808.00,0.0054
807.00,0.0054
806.00,0.0055
805.00,0.0056
804.00,0.0057
803.00,0.0058
802.00,0.0060
801.00,0.0062
800.00,0.0064
799.00,0.0066
798.00,0.0070
797.00,0.0073
796.00,0.0077
795.00,0.0081
794.00,0.0085
793.00,0.0091
792.00,0.0096
791.00,0.0103
790.00,0.0110
789.00,0.0118
788.00,0.0126
787.00,0.0134
786.00,0.0143
785.00,0.0151
784.00,0.0160
783.00,0.0170
782.00,0.0181
781.00,0.0194
780.00,0.0209
779.00,0.0226
778.00,0.0246
777.00,0.0268
776.00,0.0293
775.00,0.0321
774.00,0.0351
773.00,0.0384
772.00,0.0420
771.00,0.0458
770.00,0.0498
769.00,0.0539
768.00,0.0580
767.00,0.0621
766.00,0.0661
765.00,0.0700
764.00,0.0740
763.00,0.0781
762.00,0.0823
761.00,0.0866
760.00,0.0908
759.00,0.0948
758.00,0.0982
757.00,0.1009
756.00,0.1027
755.00,0.1036
754.00,0.1038
753.00,0.1035
752.00,0.1031
751.00,0.1027
750.00,0.1024
749.00,0.1021
748.00,0.1013
747.00,0.0997
746.00,0.0968
745.00,0.0924
744.00,0.0866
743.00,0.0798
742.00,0.0727
741.00,0.0658
740.00,0.0592
739.00,0.0533
738.00,0.0478
737.00,0.0428
736.00,0.0380
735.00,0.0334
734.00,0.0291
733.00,0.0251
732.00,0.0217
731.00,0.0190
730.00,0.0169
729.00,0.0153
728.00,0.0142
727.00,0.0134
726.00,0.0127
725.00,0.0123
724.00,0.0120
723.00,0.0118
722.00,0.0117
721.00,0.0117
720.00,0.0117
719.00,0.0119
718.00,0.0122
717.00,0.0128
716.00,0.0137
715.00,0.0149
714.00,0.0165
713.00,0.0187
712.00,0.0220
711.00,0.0264
710.00,0.0325
709.00,0.0404
708.00,0.0506
707.00,0.0632
706.00,0.0785
705.00,0.0964
704.00,0.1170
703.00,0.1401
702.00,0.1654
701.00,0.1927
700.00,0.2214
699.00,0.2508
698.00,0.2802
697.00,0.3074
696.00,0.3285
695.00,0.3380
694.00,0.3316
693.00,0.3090
692.00,0.2752
691.00,0.2375
690.00,0.2020
689.00,0.1716
688.00,0.1469
687.00,0.1274
686.00,0.1123
685.00,0.1003
684.00,0.0907
683.00,0.0827
682.00,0.0759
681.00,0.0701
680.00,0.0651
679.00,0.0608
678.00,0.0572
677.00,0.0541
676.00,0.0515
675.00,0.0493
674.00,0.0473
673.00,0.0456
672.00,0.0440
671.00,0.0426
670.00,0.0412
669.00,0.0396
668.00,0.0376
667.00,0.0359
666.00,0.0346
665.00,0.0335
664.00,0.0323
663.00,0.0309
662.00,0.0295
661.00,0.0281
660.00,0.0268
659.00,0.0256
658.00,0.0245
657.00,0.0234
656.00,0.0223
655.00,0.0214
654.00,0.0206
653.00,0.0198
652.00,0.0191
651.00,0.0184
650.00,0.0178
649.00,0.0173
648.00,0.0169
647.00,0.0165
646.00,0.0161
645.00,0.0157
644.00,0.0154
643.00,0.0152
642.00,0.0151
641.00,0.0151
640.00,0.0152
639.00,0.0154
638.00,0.0157
637.00,0.0160
636.00,0.0164
635.00,0.0168
634.00,0.0172
633.00,0.0176
632.00,0.0181
631.00,0.0185
630.00,0.0190
629.00,0.0193
628.00,0.0196
627.00,0.0198
626.00,0.0200
625.00,0.0203
624.00,0.0206
623.00,0.0211
622.00,0.0215
621.00,0.0217
620.00,0.0215
619.00,0.0210
618.00,0.0203
617.00,0.0196
616.00,0.0191
615.00,0.0187
614.00,0.0183
613.00,0.0180
612.00,0.0177
611.00,0.0174
610.00,0.0172
609.00,0.0170
608.00,0.0168
607.00,0.0167
606.00,0.0165
605.00,0.0165
604.00,0.0165
603.00,0.0165
602.00,0.0166
601.00,0.0168
600.00,0.0171
599.00,0.0173
598.00,0.0174
597.00,0.0176
596.00,0.0178
595.00,0.0180
594.00,0.0183
593.00,0.0186
592.00,0.0188
591.00,0.0191
590.00,0.0194
589.00,0.0197
588.00,0.0201
587.00,0.0205
586.00,0.0208
585.00,0.0212
584.00,0.0217
583.00,0.0223
582.00,0.0230
581.00,0.0238
580.00,0.0246
579.00,0.0256
578.00,0.0267
577.00,0.0280
576.00,0.0294
575.00,0.0308
574.00,0.0321
573.00,0.0334
572.00,0.0348
571.00,0.0362
570.00,0.0377
569.00,0.0391
568.00,0.0405
567.00,0.0418
566.00,0.0431
565.00,0.0444
564.00,0.0459
563.00,0.0473
562.00,0.0487
561.00,0.0500
560.00,0.0513
559.00,0.0526
558.00,0.0540
557.00,0.0555
556.00,0.0571
555.00,0.0587
554.00,0.0603
553.00,0.0621
552.00,0.0640
551.00,0.0660
550.00,0.0682
549.00,0.0706
548.00,0.0734
547.00,0.0765
546.00,0.0797
545.00,0.0831
544.00,0.0867
543.00,0.0903
542.00,0.0938
541.00,0.0971
540.00,0.0999
539.00,0.1018
538.00,0.1024
537.00,0.1018
536.00,0.1000
535.00,0.0969
534.00,0.0927
533.00,0.0878
532.00,0.0826
531.00,0.0773
530.00,0.0721
529.00,0.0670
528.00,0.0622
527.00,0.0576
526.00,0.0535
525.00,0.0499
524.00,0.0468
523.00,0.0440
522.00,0.0416
521.00,0.0395
520.00,0.0376
519.00,0.0360
518.00,0.0345
517.00,0.0333
516.00,0.0322
515.00,0.0313
514.00,0.0304
513.00,0.0296
512.00,0.0287
511.00,0.0279
510.00,0.0270
509.00,0.0261
508.00,0.0251
507.00,0.0240
506.00,0.0230
505.00,0.0222
504.00,0.0215
503.00,0.0209
502.00,0.0202
501.00,0.0196
500.00,0.0191
499.00,0.0187
498.00,0.0183
497.00,0.0179
496.00,0.0177
495.00,0.0175
494.00,0.0173
493.00,0.0170
492.00,0.0167
491.00,0.0163
490.00,0.0158
489.00,0.0154
488.00,0.0152
487.00,0.0151
486.00,0.0149
485.00,0.0148
484.00,0.0146
483.00,0.0143
482.00,0.0141
481.00,0.0140
480.00,0.0139
479.00,0.0137
478.00,0.0135
477.00,0.0132
476.00,0.0132
475.00,0.0132
474.00,0.0133
473.00,0.0133
472.00,0.0131
471.00,0.0130
470.00,0.0129
469.00,0.0129
468.00,0.0128
467.00,0.0126
466.00,0.0123
465.00,0.0120
464.00,0.0116
463.00,0.0112
462.00,0.0109
461.00,0.0108
460.00,0.0111
459.00,0.0117
458.00,0.0122
457.00,0.0123
456.00,0.0121
455.00,0.0118
454.00,0.0118
453.00,0.0119
452.00,0.0120
451.00,0.0119
450.00,0.0116
449.00,0.0113
448.00,0.0111
447.00,0.0110
446.00,0.0109
445.00,0.0106
444.00,0.0104
443.00,0.0104
442.00,0.0105
441.00,0.0105
440.00,0.0103
439.00,0.0102
438.00,0.0101
437.00,0.0101
436.00,0.0100
435.00,0.0097
434.00,0.0092
433.00,0.0087
432.00,0.0085
431.00,0.0087
430.00,0.0090
429.00,0.0091
428.00,0.0090
427.00,0.0090
426.00,0.0094
425.00,0.0102
424.00,0.0109
423.00,0.0110
422.00,0.0105
421.00,0.0097
420.00,0.0088
419.00,0.0080
418.00,0.0074
417.00,0.0071
416.00,0.0068
415.00,0.0066
414.00,0.0065
413.00,0.0068
412.00,0.0074
411.00,0.0082
410.00,0.0090
409.00,0.0096
408.00,0.0101
407.00,0.0108
406.00,0.0115
405.00,0.0120
404.00,0.0121
403.00,0.0116
402.00,0.0106
401.00,0.0096
400.00,0.0089
