Created as New Dataset,Sample 951 By YargerLab Date Tuesday, July 29 2025
cm-1,A
4000.00,0.0009
3999.00,0.0009
3998.00,0.0009
3997.00,0.0009
3996.00,0.0009
3995.00,0.0009
3994.00,0.0009
3993.00,0.0008
3992.00,0.0008
3991.00,0.0008
3990.00,0.0008
3989.00,0.0008
3988.00,0.0008
3987.00,0.0009
3986.00,0.0009
3985.00,0.0008
3984.00,0.0008
3983.00,0.0008
3982.00,0.0008
3981.00,0.0008
3980.00,0.0009
3979.00,0.0009
3978.00,0.0009
3977.00,0.0008
3976.00,0.0008
3975.00,0.0008
3974.00,0.0008
3973.00,0.0008
3972.00,0.0008
3971.00,0.0008
3970.00,0.0009
3969.00,0.0009
3968.00,0.0009
3967.00,0.0009
3966.00,0.0009
3965.00,0.0009
3964.00,0.0009
3963.00,0.0009
3962.00,0.0008
3961.00,0.0008
3960.00,0.0008
3959.00,0.0008
3958.00,0.0008
3957.00,0.0009
3956.00,0.0009
3955.00,0.0009
3954.00,0.0009
3953.00,0.0009
3952.00,0.0009
3951.00,0.0009
3950.00,0.0008
3949.00,0.0008
3948.00,0.0008
3947.00,0.0008
3946.00,0.0008
3945.00,0.0008
3944.00,0.0008
3943.00,0.0008
3942.00,0.0008
3941.00,0.0008
3940.00,0.0008
3939.00,0.0008
3938.00,0.0009
3937.00,0.0009
3936.00,0.0009
3935.00,0.0008
3934.00,0.0008
3933.00,0.0008
3932.00,0.0008
3931.00,0.0008
3930.00,0.0008
3929.00,0.0008
3928.00,0.0008
3927.00,0.0008
3926.00,0.0008
3925.00,0.0008
3924.00,0.0008
3923.00,0.0008
3922.00,0.0008
3921.00,0.0008
3920.00,0.0008
3919.00,0.0008
3918.00,0.0008
3917.00,0.0008
3916.00,0.0008
3915.00,0.0008
3914.00,0.0008
3913.00,0.0008
3912.00,0.0008
3911.00,0.0008
3910.00,0.0008
3909.00,0.0008
3908.00,0.0008
3907.00,0.0008
3906.00,0.0008
3905.00,0.0008
3904.00,0.0008
3903.00,0.0008
3902.00,0.0008
3901.00,0.0008
3900.00,0.0008
3899.00,0.0008
3898.00,0.0008
3897.00,0.0008
3896.00,0.0008
3895.00,0.0008
3894.00,0.0008
3893.00,0.0008
3892.00,0.0008
3891.00,0.0008
3890.00,0.0008
3889.00,0.0008
3888.00,0.0008
3887.00,0.0008
3886.00,0.0009
3885.00,0.0009
3884.00,0.0009
3883.00,0.0009
3882.00,0.0008
3881.00,0.0008
3880.00,0.0008
3879.00,0.0008
3878.00,0.0008
3877.00,0.0008
3876.00,0.0008
3875.00,0.0008
3874.00,0.0008
3873.00,0.0008
3872.00,0.0008
3871.00,0.0008
3870.00,0.0008
3869.00,0.0008
3868.00,0.0008
3867.00,0.0008
3866.00,0.0008
3865.00,0.0008
3864.00,0.0008
3863.00,0.0008
3862.00,0.0008
3861.00,0.0008
3860.00,0.0008
3859.00,0.0008
3858.00,0.0008
3857.00,0.0008
3856.00,0.0009
3855.00,0.0009
3854.00,0.0009
3853.00,0.0008
3852.00,0.0008
3851.00,0.0008
3850.00,0.0009
3849.00,0.0008
3848.00,0.0008
3847.00,0.0008
3846.00,0.0008
3845.00,0.0008
3844.00,0.0008
3843.00,0.0008
3842.00,0.0008
3841.00,0.0008
3840.00,0.0009
3839.00,0.0009
3838.00,0.0009
3837.00,0.0009
3836.00,0.0008
3835.00,0.0008
3834.00,0.0008
3833.00,0.0008
3832.00,0.0008
3831.00,0.0008
3830.00,0.0008
3829.00,0.0009
3828.00,0.0009
3827.00,0.0009
3826.00,0.0009
3825.00,0.0009
3824.00,0.0009
3823.00,0.0009
3822.00,0.0009
3821.00,0.0008
3820.00,0.0009
3819.00,0.0009
3818.00,0.0009
3817.00,0.0009
3816.00,0.0010
3815.00,0.0010
3814.00,0.0009
3813.00,0.0009
3812.00,0.0009
3811.00,0.0009
3810.00,0.0009
3809.00,0.0009
3808.00,0.0009
3807.00,0.0009
3806.00,0.0009
3805.00,0.0009
3804.00,0.0009
3803.00,0.0009
3802.00,0.0009
3801.00,0.0009
3800.00,0.0009
3799.00,0.0008
3798.00,0.0008
3797.00,0.0008
3796.00,0.0009
3795.00,0.0009
3794.00,0.0009
3793.00,0.0009
3792.00,0.0009
3791.00,0.0009
3790.00,0.0009
3789.00,0.0009
3788.00,0.0009
3787.00,0.0009
3786.00,0.0009
3785.00,0.0009
3784.00,0.0009
3783.00,0.0009
3782.00,0.0009
3781.00,0.0009
3780.00,0.0009
3779.00,0.0009
3778.00,0.0009
3777.00,0.0009
3776.00,0.0009
3775.00,0.0009
3774.00,0.0009
3773.00,0.0009
3772.00,0.0009
3771.00,0.0009
3770.00,0.0009
3769.00,0.0009
3768.00,0.0009
3767.00,0.0009
3766.00,0.0009
3765.00,0.0009
3764.00,0.0009
3763.00,0.0009
3762.00,0.0009
3761.00,0.0009
3760.00,0.0009
3759.00,0.0009
3758.00,0.0009
3757.00,0.0009
3756.00,0.0009
3755.00,0.0009
3754.00,0.0009
3753.00,0.0009
3752.00,0.0008
3751.00,0.0008
3750.00,0.0008
3749.00,0.0008
3748.00,0.0008
3747.00,0.0008
3746.00,0.0008
3745.00,0.0008
3744.00,0.0008
3743.00,0.0008
3742.00,0.0008
3741.00,0.0008
3740.00,0.0008
3739.00,0.0008
3738.00,0.0008
3737.00,0.0008
3736.00,0.0008
3735.00,0.0008
3734.00,0.0008
3733.00,0.0008
3732.00,0.0008
3731.00,0.0008
3730.00,0.0008
3729.00,0.0008
3728.00,0.0008
3727.00,0.0008
3726.00,0.0008
3725.00,0.0009
3724.00,0.0009
3723.00,0.0009
3722.00,0.0009
3721.00,0.0009
3720.00,0.0009
3719.00,0.0009
3718.00,0.0009
3717.00,0.0009
3716.00,0.0009
3715.00,0.0008
3714.00,0.0008
3713.00,0.0008
3712.00,0.0007
3711.00,0.0008
3710.00,0.0008
3709.00,0.0008
3708.00,0.0008
3707.00,0.0008
3706.00,0.0009
3705.00,0.0009
3704.00,0.0009
3703.00,0.0009
3702.00,0.0009
3701.00,0.0009
3700.00,0.0009
3699.00,0.0009
3698.00,0.0009
3697.00,0.0009
3696.00,0.0009
3695.00,0.0009
3694.00,0.0008
3693.00,0.0008
3692.00,0.0008
3691.00,0.0008
3690.00,0.0008
3689.00,0.0008
3688.00,0.0008
3687.00,0.0008
3686.00,0.0008
3685.00,0.0008
3684.00,0.0009
3683.00,0.0009
3682.00,0.0009
3681.00,0.0009
3680.00,0.0009
3679.00,0.0009
3678.00,0.0009
3677.00,0.0009
3676.00,0.0009
3675.00,0.0009
3674.00,0.0009
3673.00,0.0009
3672.00,0.0009
3671.00,0.0009
3670.00,0.0009
3669.00,0.0009
3668.00,0.0009
3667.00,0.0009
3666.00,0.0009
3665.00,0.0009
3664.00,0.0009
3663.00,0.0009
3662.00,0.0009
3661.00,0.0009
3660.00,0.0009
3659.00,0.0009
3658.00,0.0009
3657.00,0.0009
3656.00,0.0009
3655.00,0.0009
3654.00,0.0009
3653.00,0.0009
3652.00,0.0009
3651.00,0.0009
3650.00,0.0009
3649.00,0.0009
3648.00,0.0009
3647.00,0.0009
3646.00,0.0009
3645.00,0.0009
3644.00,0.0009
3643.00,0.0009
3642.00,0.0010
3641.00,0.0010
3640.00,0.0010
3639.00,0.0010
3638.00,0.0010
3637.00,0.0010
3636.00,0.0010
3635.00,0.0010
3634.00,0.0009
3633.00,0.0009
3632.00,0.0009
3631.00,0.0009
3630.00,0.0009
3629.00,0.0009
3628.00,0.0009
3627.00,0.0009
3626.00,0.0009
3625.00,0.0009
3624.00,0.0009
3623.00,0.0009
3622.00,0.0010
3621.00,0.0010
3620.00,0.0010
3619.00,0.0010
3618.00,0.0010
3617.00,0.0010
3616.00,0.0010
3615.00,0.0010
3614.00,0.0010
3613.00,0.0010
3612.00,0.0010
3611.00,0.0010
3610.00,0.0010
3609.00,0.0009
3608.00,0.0009
3607.00,0.0009
3606.00,0.0009
3605.00,0.0010
3604.00,0.0010
3603.00,0.0010
3602.00,0.0010
3601.00,0.0010
3600.00,0.0010
3599.00,0.0010
3598.00,0.0010
3597.00,0.0010
3596.00,0.0010
3595.00,0.0010
3594.00,0.0009
3593.00,0.0010
3592.00,0.0010
3591.00,0.0010
3590.00,0.0010
3589.00,0.0010
3588.00,0.0010
3587.00,0.0010
3586.00,0.0010
3585.00,0.0010
3584.00,0.0011
3583.00,0.0011
3582.00,0.0011
3581.00,0.0011
3580.00,0.0011
3579.00,0.0011
3578.00,0.0012
3577.00,0.0012
3576.00,0.0012
3575.00,0.0012
3574.00,0.0012
3573.00,0.0012
3572.00,0.0012
3571.00,0.0012
3570.00,0.0011
3569.00,0.0011
3568.00,0.0011
3567.00,0.0011
3566.00,0.0011
3565.00,0.0011
3564.00,0.0012
3563.00,0.0012
3562.00,0.0012
3561.00,0.0012
3560.00,0.0012
3559.00,0.0012
3558.00,0.0012
3557.00,0.0012
3556.00,0.0012
3555.00,0.0013
3554.00,0.0013
3553.00,0.0013
3552.00,0.0014
3551.00,0.0014
3550.00,0.0014
3549.00,0.0014
3548.00,0.0014
3547.00,0.0014
3546.00,0.0014
3545.00,0.0014
3544.00,0.0014
3543.00,0.0014
3542.00,0.0014
3541.00,0.0014
3540.00,0.0014
3539.00,0.0014
3538.00,0.0014
3537.00,0.0014
3536.00,0.0014
3535.00,0.0015
3534.00,0.0015
3533.00,0.0015
3532.00,0.0015
3531.00,0.0015
3530.00,0.0015
3529.00,0.0015
3528.00,0.0015
3527.00,0.0015
3526.00,0.0015
3525.00,0.0015
3524.00,0.0015
3523.00,0.0015
3522.00,0.0015
3521.00,0.0016
3520.00,0.0016
3519.00,0.0016
3518.00,0.0017
3517.00,0.0017
3516.00,0.0017
3515.00,0.0017
3514.00,0.0016
3513.00,0.0016
3512.00,0.0016
3511.00,0.0016
3510.00,0.0016
3509.00,0.0016
3508.00,0.0017
3507.00,0.0017
3506.00,0.0017
3505.00,0.0017
3504.00,0.0017
3503.00,0.0017
3502.00,0.0017
3501.00,0.0017
3500.00,0.0017
3499.00,0.0017
3498.00,0.0017
3497.00,0.0017
3496.00,0.0017
3495.00,0.0017
3494.00,0.0017
3493.00,0.0018
3492.00,0.0018
3491.00,0.0018
3490.00,0.0018
3489.00,0.0018
3488.00,0.0018
3487.00,0.0018
3486.00,0.0018
3485.00,0.0018
3484.00,0.0018
3483.00,0.0018
3482.00,0.0018
3481.00,0.0018
3480.00,0.0018
3479.00,0.0018
3478.00,0.0018
3477.00,0.0018
3476.00,0.0018
3475.00,0.0018
3474.00,0.0018
3473.00,0.0018
3472.00,0.0018
3471.00,0.0019
3470.00,0.0019
3469.00,0.0019
3468.00,0.0019
3467.00,0.0019
3466.00,0.0019
3465.00,0.0018
3464.00,0.0018
3463.00,0.0019
3462.00,0.0019
3461.00,0.0019
3460.00,0.0019
3459.00,0.0019
3458.00,0.0019
3457.00,0.0019
3456.00,0.0019
3455.00,0.0019
3454.00,0.0019
3453.00,0.0018
3452.00,0.0018
3451.00,0.0018
3450.00,0.0018
3449.00,0.0019
3448.00,0.0019
3447.00,0.0019
3446.00,0.0020
3445.00,0.0020
3444.00,0.0019
3443.00,0.0019
3442.00,0.0019
3441.00,0.0019
3440.00,0.0019
3439.00,0.0019
3438.00,0.0019
3437.00,0.0019
3436.00,0.0019
3435.00,0.0019
3434.00,0.0019
3433.00,0.0019
3432.00,0.0020
3431.00,0.0020
3430.00,0.0020
3429.00,0.0019
3428.00,0.0019
3427.00,0.0019
3426.00,0.0019
3425.00,0.0019
3424.00,0.0019
3423.00,0.0019
3422.00,0.0019
3421.00,0.0019
3420.00,0.0019
3419.00,0.0019
3418.00,0.0019
3417.00,0.0019
3416.00,0.0019
3415.00,0.0019
3414.00,0.0019
3413.00,0.0019
3412.00,0.0020
3411.00,0.0020
3410.00,0.0020
3409.00,0.0020
3408.00,0.0020
3407.00,0.0020
3406.00,0.0020
3405.00,0.0019
3404.00,0.0019
3403.00,0.0019
3402.00,0.0019
3401.00,0.0019
3400.00,0.0019
3399.00,0.0019
3398.00,0.0019
3397.00,0.0019
3396.00,0.0019
3395.00,0.0019
3394.00,0.0019
3393.00,0.0019
3392.00,0.0019
3391.00,0.0019
3390.00,0.0019
3389.00,0.0019
3388.00,0.0019
3387.00,0.0019
3386.00,0.0019
3385.00,0.0019
3384.00,0.0019
3383.00,0.0019
3382.00,0.0019
3381.00,0.0019
3380.00,0.0019
3379.00,0.0019
3378.00,0.0019
3377.00,0.0019
3376.00,0.0019
3375.00,0.0019
3374.00,0.0019
3373.00,0.0019
3372.00,0.0019
3371.00,0.0019
3370.00,0.0019
3369.00,0.0019
3368.00,0.0019
3367.00,0.0018
3366.00,0.0018
3365.00,0.0018
3364.00,0.0019
3363.00,0.0019
3362.00,0.0019
3361.00,0.0019
3360.00,0.0019
3359.00,0.0019
3358.00,0.0019
3357.00,0.0019
3356.00,0.0019
3355.00,0.0018
3354.00,0.0018
3353.00,0.0018
3352.00,0.0018
3351.00,0.0018
3350.00,0.0018
3349.00,0.0018
3348.00,0.0018
3347.00,0.0018
3346.00,0.0018
3345.00,0.0018
3344.00,0.0018
3343.00,0.0018
3342.00,0.0018
3341.00,0.0018
3340.00,0.0018
3339.00,0.0018
3338.00,0.0018
3337.00,0.0018
3336.00,0.0018
3335.00,0.0018
3334.00,0.0018
3333.00,0.0018
3332.00,0.0018
3331.00,0.0018
3330.00,0.0018
3329.00,0.0018
3328.00,0.0018
3327.00,0.0017
3326.00,0.0017
3325.00,0.0017
3324.00,0.0017
3323.00,0.0017
3322.00,0.0017
3321.00,0.0018
3320.00,0.0018
3319.00,0.0018
3318.00,0.0018
3317.00,0.0018
3316.00,0.0018
3315.00,0.0018
3314.00,0.0018
3313.00,0.0018
3312.00,0.0018
3311.00,0.0018
3310.00,0.0017
3309.00,0.0017
3308.00,0.0017
3307.00,0.0017
3306.00,0.0017
3305.00,0.0017
3304.00,0.0017
3303.00,0.0017
3302.00,0.0017
3301.00,0.0017
3300.00,0.0017
3299.00,0.0017
3298.00,0.0016
3297.00,0.0016
3296.00,0.0016
3295.00,0.0017
3294.00,0.0017
3293.00,0.0017
3292.00,0.0017
3291.00,0.0017
3290.00,0.0017
3289.00,0.0017
3288.00,0.0017
3287.00,0.0017
3286.00,0.0017
3285.00,0.0017
3284.00,0.0017
3283.00,0.0017
3282.00,0.0017
3281.00,0.0017
3280.00,0.0017
3279.00,0.0017
3278.00,0.0017
3277.00,0.0017
3276.00,0.0017
3275.00,0.0017
3274.00,0.0017
3273.00,0.0017
3272.00,0.0017
3271.00,0.0017
3270.00,0.0016
3269.00,0.0017
3268.00,0.0017
3267.00,0.0017
3266.00,0.0017
3265.00,0.0016
3264.00,0.0016
3263.00,0.0016
3262.00,0.0016
3261.00,0.0017
3260.00,0.0017
3259.00,0.0017
3258.00,0.0017
3257.00,0.0016
3256.00,0.0016
3255.00,0.0016
3254.00,0.0016
3253.00,0.0016
3252.00,0.0016
3251.00,0.0016
3250.00,0.0016
3249.00,0.0016
3248.00,0.0016
3247.00,0.0016
3246.00,0.0016
3245.00,0.0016
3244.00,0.0016
3243.00,0.0016
3242.00,0.0016
3241.00,0.0016
3240.00,0.0016
3239.00,0.0016
3238.00,0.0016
3237.00,0.0015
3236.00,0.0015
3235.00,0.0015
3234.00,0.0015
3233.00,0.0015
3232.00,0.0015
3231.00,0.0015
3230.00,0.0015
3229.00,0.0015
3228.00,0.0015
3227.00,0.0015
3226.00,0.0015
3225.00,0.0015
3224.00,0.0016
3223.00,0.0015
3222.00,0.0015
3221.00,0.0015
3220.00,0.0015
3219.00,0.0015
3218.00,0.0016
3217.00,0.0016
3216.00,0.0016
3215.00,0.0016
3214.00,0.0016
3213.00,0.0016
3212.00,0.0016
3211.00,0.0016
3210.00,0.0016
3209.00,0.0016
3208.00,0.0016
3207.00,0.0016
3206.00,0.0016
3205.00,0.0016
3204.00,0.0016
3203.00,0.0016
3202.00,0.0016
3201.00,0.0016
3200.00,0.0016
3199.00,0.0016
3198.00,0.0015
3197.00,0.0015
3196.00,0.0015
3195.00,0.0015
3194.00,0.0015
3193.00,0.0015
3192.00,0.0015
3191.00,0.0015
3190.00,0.0015
3189.00,0.0015
3188.00,0.0015
3187.00,0.0015
3186.00,0.0015
3185.00,0.0015
3184.00,0.0015
3183.00,0.0015
3182.00,0.0015
3181.00,0.0015
3180.00,0.0015
3179.00,0.0014
3178.00,0.0014
3177.00,0.0014
3176.00,0.0014
3175.00,0.0014
3174.00,0.0014
3173.00,0.0014
3172.00,0.0014
3171.00,0.0015
3170.00,0.0015
3169.00,0.0015
3168.00,0.0015
3167.00,0.0015
3166.00,0.0016
3165.00,0.0016
3164.00,0.0016
3163.00,0.0016
3162.00,0.0016
3161.00,0.0016
3160.00,0.0015
3159.00,0.0015
3158.00,0.0015
3157.00,0.0014
3156.00,0.0014
3155.00,0.0014
3154.00,0.0015
3153.00,0.0015
3152.00,0.0015
3151.00,0.0014
3150.00,0.0014
3149.00,0.0014
3148.00,0.0014
3147.00,0.0014
3146.00,0.0014
3145.00,0.0014
3144.00,0.0014
3143.00,0.0014
3142.00,0.0014
3141.00,0.0014
3140.00,0.0014
3139.00,0.0014
3138.00,0.0014
3137.00,0.0014
3136.00,0.0014
3135.00,0.0014
3134.00,0.0014
3133.00,0.0014
3132.00,0.0014
3131.00,0.0014
3130.00,0.0014
3129.00,0.0014
3128.00,0.0014
3127.00,0.0015
3126.00,0.0015
3125.00,0.0015
3124.00,0.0015
3123.00,0.0015
3122.00,0.0015
3121.00,0.0016
3120.00,0.0016
3119.00,0.0016
3118.00,0.0017
3117.00,0.0017
3116.00,0.0017
3115.00,0.0018
3114.00,0.0019
3113.00,0.0019
3112.00,0.0021
3111.00,0.0022
3110.00,0.0024
3109.00,0.0026
3108.00,0.0028
3107.00,0.0030
3106.00,0.0032
3105.00,0.0033
3104.00,0.0034
3103.00,0.0034
3102.00,0.0034
3101.00,0.0033
3100.00,0.0033
3099.00,0.0032
3098.00,0.0032
3097.00,0.0032
3096.00,0.0032
3095.00,0.0033
3094.00,0.0034
3093.00,0.0036
3092.00,0.0039
3091.00,0.0042
3090.00,0.0046
3089.00,0.0051
3088.00,0.0057
3087.00,0.0063
3086.00,0.0069
3085.00,0.0075
3084.00,0.0079
3083.00,0.0082
3082.00,0.0082
3081.00,0.0081
3080.00,0.0078
3079.00,0.0075
3078.00,0.0070
3077.00,0.0067
3076.00,0.0064
3075.00,0.0062
3074.00,0.0061
3073.00,0.0060
3072.00,0.0061
3071.00,0.0063
3070.00,0.0065
3069.00,0.0069
3068.00,0.0073
3067.00,0.0078
3066.00,0.0084
3065.00,0.0091
3064.00,0.0097
3063.00,0.0103
3062.00,0.0108
3061.00,0.0112
3060.00,0.0113
3059.00,0.0113
3058.00,0.0110
3057.00,0.0105
3056.00,0.0099
3055.00,0.0093
3054.00,0.0087
3053.00,0.0081
3052.00,0.0075
3051.00,0.0071
3050.00,0.0067
3049.00,0.0064
3048.00,0.0061
3047.00,0.0059
3046.00,0.0058
3045.00,0.0058
3044.00,0.0058
3043.00,0.0059
3042.00,0.0061
3041.00,0.0064
3040.00,0.0067
3039.00,0.0072
3038.00,0.0077
3037.00,0.0083
3036.00,0.0091
3035.00,0.0101
3034.00,0.0112
3033.00,0.0124
3032.00,0.0138
3031.00,0.0154
3030.00,0.0169
3029.00,0.0184
3028.00,0.0198
3027.00,0.0209
3026.00,0.0215
3025.00,0.0215
3024.00,0.0210
3023.00,0.0200
3022.00,0.0185
3021.00,0.0168
3020.00,0.0150
3019.00,0.0132
3018.00,0.0116
3017.00,0.0101
3016.00,0.0089
3015.00,0.0080
3014.00,0.0072
3013.00,0.0066
3012.00,0.0061
3011.00,0.0058
3010.00,0.0056
3009.00,0.0055
3008.00,0.0055
3007.00,0.0055
3006.00,0.0056
3005.00,0.0058
3004.00,0.0060
3003.00,0.0062
3002.00,0.0063
3001.00,0.0063
3000.00,0.0062
2999.00,0.0059
2998.00,0.0056
2997.00,0.0052
2996.00,0.0048
2995.00,0.0045
2994.00,0.0042
2993.00,0.0039
2992.00,0.0038
2991.00,0.0036
2990.00,0.0036
2989.00,0.0035
2988.00,0.0035
2987.00,0.0034
2986.00,0.0034
2985.00,0.0034
2984.00,0.0034
2983.00,0.0034
2982.00,0.0034
2981.00,0.0035
2980.00,0.0035
2979.00,0.0035
2978.00,0.0036
2977.00,0.0037
2976.00,0.0037
2975.00,0.0038
2974.00,0.0038
2973.00,0.0038
2972.00,0.0039
2971.00,0.0040
2970.00,0.0041
2969.00,0.0042
2968.00,0.0043
2967.00,0.0044
2966.00,0.0045
2965.00,0.0047
2964.00,0.0048
2963.00,0.0050
2962.00,0.0051
2961.00,0.0053
2960.00,0.0055
2959.00,0.0057
2958.00,0.0059
2957.00,0.0061
2956.00,0.0064
2955.00,0.0066
2954.00,0.0069
2953.00,0.0072
2952.00,0.0076
2951.00,0.0079
2950.00,0.0083
2949.00,0.0087
2948.00,0.0091
2947.00,0.0095
2946.00,0.0100
2945.00,0.0106
2944.00,0.0112
2943.00,0.0118
2942.00,0.0124
2941.00,0.0131
2940.00,0.0139
2939.00,0.0147
2938.00,0.0155
2937.00,0.0163
2936.00,0.0172
2935.00,0.0182
2934.00,0.0191
2933.00,0.0201
2932.00,0.0210
2931.00,0.0219
2930.00,0.0228
2929.00,0.0236
2928.00,0.0243
2927.00,0.0250
2926.00,0.0255
2925.00,0.0260
2924.00,0.0263
2923.00,0.0265
2922.00,0.0265
2921.00,0.0265
2920.00,0.0264
2919.00,0.0262
2918.00,0.0259
2917.00,0.0255
2916.00,0.0250
2915.00,0.0245
2914.00,0.0239
2913.00,0.0233
2912.00,0.0226
2911.00,0.0220
2910.00,0.0214
2909.00,0.0207
2908.00,0.0201
2907.00,0.0194
2906.00,0.0187
2905.00,0.0181
2904.00,0.0174
2903.00,0.0167
2902.00,0.0161
2901.00,0.0154
2900.00,0.0148
2899.00,0.0141
2898.00,0.0135
2897.00,0.0129
2896.00,0.0124
2895.00,0.0120
2894.00,0.0116
2893.00,0.0112
2892.00,0.0108
2891.00,0.0105
2890.00,0.0102
2889.00,0.0099
2888.00,0.0097
2887.00,0.0094
2886.00,0.0092
2885.00,0.0090
2884.00,0.0088
2883.00,0.0086
2882.00,0.0084
2881.00,0.0082
2880.00,0.0081
2879.00,0.0079
2878.00,0.0077
2877.00,0.0075
2876.00,0.0073
2875.00,0.0072
2874.00,0.0071
2873.00,0.0070
2872.00,0.0069
2871.00,0.0069
2870.00,0.0068
2869.00,0.0068
2868.00,0.0068
2867.00,0.0069
2866.00,0.0070
2865.00,0.0071
2864.00,0.0073
2863.00,0.0076
2862.00,0.0079
2861.00,0.0082
2860.00,0.0085
2859.00,0.0089
2858.00,0.0093
2857.00,0.0097
2856.00,0.0101
2855.00,0.0105
2854.00,0.0109
2853.00,0.0112
2852.00,0.0114
2851.00,0.0116
2850.00,0.0116
2849.00,0.0116
2848.00,0.0115
2847.00,0.0113
2846.00,0.0109
2845.00,0.0105
2844.00,0.0100
2843.00,0.0094
2842.00,0.0087
2841.00,0.0080
2840.00,0.0073
2839.00,0.0067
2838.00,0.0061
2837.00,0.0055
2836.00,0.0050
2835.00,0.0045
2834.00,0.0042
2833.00,0.0039
2832.00,0.0037
2831.00,0.0035
2830.00,0.0033
2829.00,0.0032
2828.00,0.0031
2827.00,0.0029
2826.00,0.0029
2825.00,0.0028
2824.00,0.0027
2823.00,0.0027
2822.00,0.0026
2821.00,0.0026
2820.00,0.0025
2819.00,0.0025
2818.00,0.0024
2817.00,0.0024
2816.00,0.0024
2815.00,0.0024
2814.00,0.0024
2813.00,0.0024
2812.00,0.0024
2811.00,0.0023
2810.00,0.0023
2809.00,0.0023
2808.00,0.0023
2807.00,0.0022
2806.00,0.0022
2805.00,0.0022
2804.00,0.0022
2803.00,0.0022
2802.00,0.0021
2801.00,0.0021
2800.00,0.0021
2799.00,0.0021
2798.00,0.0020
2797.00,0.0020
2796.00,0.0020
2795.00,0.0020
2794.00,0.0019
2793.00,0.0019
2792.00,0.0019
2791.00,0.0019
2790.00,0.0019
2789.00,0.0019
2788.00,0.0019
2787.00,0.0019
2786.00,0.0019
2785.00,0.0019
2784.00,0.0019
2783.00,0.0019
2782.00,0.0019
2781.00,0.0019
2780.00,0.0019
2779.00,0.0019
2778.00,0.0018
2777.00,0.0018
2776.00,0.0018
2775.00,0.0018
2774.00,0.0018
2773.00,0.0018
2772.00,0.0018
2771.00,0.0017
2770.00,0.0017
2769.00,0.0017
2768.00,0.0017
2767.00,0.0016
2766.00,0.0016
2765.00,0.0016
2764.00,0.0016
2763.00,0.0016
2762.00,0.0016
2761.00,0.0016
2760.00,0.0016
2759.00,0.0016
2758.00,0.0016
2757.00,0.0016
2756.00,0.0016
2755.00,0.0016
2754.00,0.0015
2753.00,0.0015
2752.00,0.0015
2751.00,0.0015
2750.00,0.0015
2749.00,0.0015
2748.00,0.0015
2747.00,0.0015
2746.00,0.0015
2745.00,0.0015
2744.00,0.0015
2743.00,0.0016
2742.00,0.0015
2741.00,0.0015
2740.00,0.0015
2739.00,0.0015
2738.00,0.0015
2737.00,0.0015
2736.00,0.0015
2735.00,0.0016
2734.00,0.0016
2733.00,0.0016
2732.00,0.0016
2731.00,0.0016
2730.00,0.0016
2729.00,0.0016
2728.00,0.0016
2727.00,0.0016
2726.00,0.0016
2725.00,0.0016
2724.00,0.0016
2723.00,0.0016
2722.00,0.0016
2721.00,0.0016
2720.00,0.0016
2719.00,0.0016
2718.00,0.0016
2717.00,0.0016
2716.00,0.0016
2715.00,0.0016
2714.00,0.0016
2713.00,0.0016
2712.00,0.0016
2711.00,0.0015
2710.00,0.0015
2709.00,0.0015
2708.00,0.0015
2707.00,0.0015
2706.00,0.0015
2705.00,0.0015
2704.00,0.0015
2703.00,0.0015
2702.00,0.0015
2701.00,0.0015
2700.00,0.0015
2699.00,0.0015
2698.00,0.0015
2697.00,0.0015
2696.00,0.0016
2695.00,0.0016
2694.00,0.0016
2693.00,0.0016
2692.00,0.0015
2691.00,0.0015
2690.00,0.0015
2689.00,0.0015
2688.00,0.0015
2687.00,0.0015
2686.00,0.0015
2685.00,0.0015
2684.00,0.0015
2683.00,0.0015
2682.00,0.0015
2681.00,0.0015
2680.00,0.0015
2679.00,0.0015
2678.00,0.0015
2677.00,0.0015
2676.00,0.0015
2675.00,0.0015
2674.00,0.0015
2673.00,0.0016
2672.00,0.0016
2671.00,0.0016
2670.00,0.0016
2669.00,0.0015
2668.00,0.0015
2667.00,0.0015
2666.00,0.0016
2665.00,0.0016
2664.00,0.0017
2663.00,0.0017
2662.00,0.0018
2661.00,0.0018
2660.00,0.0018
2659.00,0.0019
2658.00,0.0019
2657.00,0.0019
2656.00,0.0019
2655.00,0.0020
2654.00,0.0020
2653.00,0.0020
2652.00,0.0020
2651.00,0.0019
2650.00,0.0019
2649.00,0.0019
2648.00,0.0020
2647.00,0.0020
2646.00,0.0020
2645.00,0.0020
2644.00,0.0020
2643.00,0.0020
2642.00,0.0020
2641.00,0.0020
2640.00,0.0020
2639.00,0.0020
2638.00,0.0020
2637.00,0.0020
2636.00,0.0020
2635.00,0.0020
2634.00,0.0020
2633.00,0.0021
2632.00,0.0021
2631.00,0.0021
2630.00,0.0020
2629.00,0.0020
2628.00,0.0020
2627.00,0.0019
2626.00,0.0019
2625.00,0.0019
2624.00,0.0019
2623.00,0.0018
2622.00,0.0018
2621.00,0.0018
2620.00,0.0018
2619.00,0.0018
2618.00,0.0017
2617.00,0.0017
2616.00,0.0017
2615.00,0.0017
2614.00,0.0017
2613.00,0.0018
2612.00,0.0018
2611.00,0.0018
2610.00,0.0018
2609.00,0.0018
2608.00,0.0018
2607.00,0.0018
2606.00,0.0018
2605.00,0.0018
2604.00,0.0018
2603.00,0.0017
2602.00,0.0017
2601.00,0.0017
2600.00,0.0017
2599.00,0.0017
2598.00,0.0016
2597.00,0.0016
2596.00,0.0016
2595.00,0.0016
2594.00,0.0016
2593.00,0.0016
2592.00,0.0016
2591.00,0.0016
2590.00,0.0015
2589.00,0.0015
2588.00,0.0015
2587.00,0.0015
2586.00,0.0015
2585.00,0.0015
2584.00,0.0015
2583.00,0.0015
2582.00,0.0016
2581.00,0.0016
2580.00,0.0015
2579.00,0.0015
2578.00,0.0015
2577.00,0.0015
2576.00,0.0015
2575.00,0.0014
2574.00,0.0014
2573.00,0.0014
2572.00,0.0014
2571.00,0.0014
2570.00,0.0014
2569.00,0.0014
2568.00,0.0014
2567.00,0.0014
2566.00,0.0014
2565.00,0.0014
2564.00,0.0014
2563.00,0.0014
2562.00,0.0014
2561.00,0.0014
2560.00,0.0014
2559.00,0.0014
2558.00,0.0013
2557.00,0.0013
2556.00,0.0013
2555.00,0.0013
2554.00,0.0013
2553.00,0.0013
2552.00,0.0013
2551.00,0.0013
2550.00,0.0013
2549.00,0.0013
2548.00,0.0013
2547.00,0.0013
2546.00,0.0012
2545.00,0.0012
2544.00,0.0012
2543.00,0.0011
2542.00,0.0012
2541.00,0.0012
2540.00,0.0012
2539.00,0.0012
2538.00,0.0012
2537.00,0.0012
2536.00,0.0012
2535.00,0.0012
2534.00,0.0012
2533.00,0.0012
2532.00,0.0012
2531.00,0.0012
2530.00,0.0012
2529.00,0.0012
2528.00,0.0012
2527.00,0.0012
2526.00,0.0012
2525.00,0.0012
2524.00,0.0012
2523.00,0.0012
2522.00,0.0012
2521.00,0.0011
2520.00,0.0011
2519.00,0.0011
2518.00,0.0011
2517.00,0.0011
2516.00,0.0011
2515.00,0.0011
2514.00,0.0011
2513.00,0.0011
2512.00,0.0011
2511.00,0.0011
2510.00,0.0011
2509.00,0.0011
2508.00,0.0011
2507.00,0.0011
2506.00,0.0011
2505.00,0.0011
2504.00,0.0011
2503.00,0.0011
2502.00,0.0011
2501.00,0.0012
2500.00,0.0012
2499.00,0.0012
2498.00,0.0012
2497.00,0.0012
2496.00,0.0011
2495.00,0.0011
2494.00,0.0011
2493.00,0.0011
2492.00,0.0011
2491.00,0.0011
2490.00,0.0011
2489.00,0.0011
2488.00,0.0011
2487.00,0.0010
2486.00,0.0010
2485.00,0.0010
2484.00,0.0010
2483.00,0.0010
2482.00,0.0010
2481.00,0.0010
2480.00,0.0010
2479.00,0.0010
2478.00,0.0010
2477.00,0.0010
2476.00,0.0010
2475.00,0.0010
2474.00,0.0010
2473.00,0.0010
2472.00,0.0010
2471.00,0.0010
2470.00,0.0010
2469.00,0.0010
2468.00,0.0010
2467.00,0.0011
2466.00,0.0010
2465.00,0.0010
2464.00,0.0010
2463.00,0.0010
2462.00,0.0010
2461.00,0.0010
2460.00,0.0010
2459.00,0.0011
2458.00,0.0011
2457.00,0.0011
2456.00,0.0011
2455.00,0.0011
2454.00,0.0011
2453.00,0.0010
2452.00,0.0010
2451.00,0.0010
2450.00,0.0010
2449.00,0.0010
2448.00,0.0010
2447.00,0.0010
2446.00,0.0010
2445.00,0.0010
2444.00,0.0010
2443.00,0.0009
2442.00,0.0009
2441.00,0.0009
2440.00,0.0009
2439.00,0.0009
2438.00,0.0008
2437.00,0.0008
2436.00,0.0008
2435.00,0.0008
2434.00,0.0008
2433.00,0.0009
2432.00,0.0008
2431.00,0.0008
2430.00,0.0008
2429.00,0.0008
2428.00,0.0008
2427.00,0.0008
2426.00,0.0007
2425.00,0.0007
2424.00,0.0007
2423.00,0.0007
2422.00,0.0007
2421.00,0.0007
2420.00,0.0007
2419.00,0.0007
2418.00,0.0007
2417.00,0.0007
2416.00,0.0007
2415.00,0.0007
2414.00,0.0007
2413.00,0.0007
2412.00,0.0007
2411.00,0.0007
2410.00,0.0007
2409.00,0.0007
2408.00,0.0006
2407.00,0.0006
2406.00,0.0006
2405.00,0.0006
2404.00,0.0006
2403.00,0.0006
2402.00,0.0006
2401.00,0.0006
2400.00,0.0006
2399.00,0.0006
2398.00,0.0006
2397.00,0.0006
2396.00,0.0006
2395.00,0.0006
2394.00,0.0006
2393.00,0.0006
2392.00,0.0006
2391.00,0.0006
2390.00,0.0006
2389.00,0.0007
2388.00,0.0007
2387.00,0.0007
2386.00,0.0006
2385.00,0.0006
2384.00,0.0006
2383.00,0.0005
2382.00,0.0005
2381.00,0.0006
2380.00,0.0006
2379.00,0.0006
2378.00,0.0006
2377.00,0.0006
2376.00,0.0006
2375.00,0.0005
2374.00,0.0005
2373.00,0.0004
2372.00,0.0004
2371.00,0.0004
2370.00,0.0004
2369.00,0.0004
2368.00,0.0005
2367.00,0.0005
2366.00,0.0005
2365.00,0.0005
2364.00,0.0006
2363.00,0.0007
2362.00,0.0008
2361.00,0.0008
2360.00,0.0009
2359.00,0.0009
2358.00,0.0008
2357.00,0.0008
2356.00,0.0009
2355.00,0.0009
2354.00,0.0009
2353.00,0.0009
2352.00,0.0009
2351.00,0.0009
2350.00,0.0009
2349.00,0.0010
2348.00,0.0010
2347.00,0.0011
2346.00,0.0012
2345.00,0.0012
2344.00,0.0012
2343.00,0.0012
2342.00,0.0012
2341.00,0.0012
2340.00,0.0012
2339.00,0.0013
2338.00,0.0013
2337.00,0.0013
2336.00,0.0013
2335.00,0.0013
2334.00,0.0013
2333.00,0.0012
2332.00,0.0012
2331.00,0.0011
2330.00,0.0012
2329.00,0.0013
2328.00,0.0015
2327.00,0.0018
2326.00,0.0021
2325.00,0.0022
2324.00,0.0022
2323.00,0.0020
2322.00,0.0019
2321.00,0.0018
2320.00,0.0017
2319.00,0.0017
2318.00,0.0017
2317.00,0.0016
2316.00,0.0016
2315.00,0.0016
2314.00,0.0016
2313.00,0.0016
2312.00,0.0016
2311.00,0.0016
2310.00,0.0015
2309.00,0.0015
2308.00,0.0014
2307.00,0.0014
2306.00,0.0014
2305.00,0.0013
2304.00,0.0013
2303.00,0.0013
2302.00,0.0013
2301.00,0.0013
2300.00,0.0013
2299.00,0.0014
2298.00,0.0014
2297.00,0.0014
2296.00,0.0015
2295.00,0.0015
2294.00,0.0015
2293.00,0.0016
2292.00,0.0016
2291.00,0.0016
2290.00,0.0017
2289.00,0.0017
2288.00,0.0018
2287.00,0.0019
2286.00,0.0018
2285.00,0.0018
2284.00,0.0017
2283.00,0.0016
2282.00,0.0016
2281.00,0.0016
2280.00,0.0016
2279.00,0.0015
2278.00,0.0015
2277.00,0.0014
2276.00,0.0014
2275.00,0.0013
2274.00,0.0013
2273.00,0.0013
2272.00,0.0013
2271.00,0.0013
2270.00,0.0012
2269.00,0.0012
2268.00,0.0011
2267.00,0.0011
2266.00,0.0011
2265.00,0.0011
2264.00,0.0011
2263.00,0.0011
2262.00,0.0012
2261.00,0.0012
2260.00,0.0013
2259.00,0.0013
2258.00,0.0012
2257.00,0.0011
2256.00,0.0010
2255.00,0.0010
2254.00,0.0010
2253.00,0.0010
2252.00,0.0011
2251.00,0.0012
2250.00,0.0012
2249.00,0.0011
2248.00,0.0011
2247.00,0.0011
2246.00,0.0011
2245.00,0.0011
2244.00,0.0012
2243.00,0.0011
2242.00,0.0011
2241.00,0.0011
2240.00,0.0010
2239.00,0.0010
2238.00,0.0009
2237.00,0.0009
2236.00,0.0009
2235.00,0.0009
2234.00,0.0010
2233.00,0.0010
2232.00,0.0010
2231.00,0.0010
2230.00,0.0010
2229.00,0.0010
2228.00,0.0009
2227.00,0.0009
2226.00,0.0008
2225.00,0.0008
2224.00,0.0008
2223.00,0.0008
2222.00,0.0008
2221.00,0.0008
2220.00,0.0008
2219.00,0.0008
2218.00,0.0008
2217.00,0.0008
2216.00,0.0009
2215.00,0.0010
2214.00,0.0010
2213.00,0.0010
2212.00,0.0009
2211.00,0.0008
2210.00,0.0008
2209.00,0.0007
2208.00,0.0008
2207.00,0.0008
2206.00,0.0009
2205.00,0.0009
2204.00,0.0009
2203.00,0.0009
2202.00,0.0009
2201.00,0.0009
2200.00,0.0008
2199.00,0.0008
2198.00,0.0009
2197.00,0.0010
2196.00,0.0010
2195.00,0.0011
2194.00,0.0011
2193.00,0.0011
2192.00,0.0011
2191.00,0.0011
2190.00,0.0010
2189.00,0.0011
2188.00,0.0011
2187.00,0.0011
2186.00,0.0010
2185.00,0.0007
2184.00,0.0005
2183.00,0.0003
2182.00,0.0003
2181.00,0.0003
2180.00,0.0004
2179.00,0.0004
2178.00,0.0003
2177.00,0.0001
2176.00,0.0000
2175.00,0.0000
2174.00,0.0002
2173.00,0.0004
2172.00,0.0007
2171.00,0.0009
2170.00,0.0011
2169.00,0.0011
2168.00,0.0012
2167.00,0.0013
2166.00,0.0014
2165.00,0.0015
2164.00,0.0016
2163.00,0.0016
2162.00,0.0012
2161.00,0.0004
2160.00,-0.0007
2159.00,-0.0017
2158.00,-0.0022
2157.00,-0.0023
2156.00,-0.0021
2155.00,-0.0019
2154.00,-0.0017
2153.00,-0.0016
2152.00,-0.0014
2151.00,-0.0014
2150.00,-0.0013
2149.00,-0.0013
2148.00,-0.0012
2147.00,-0.0011
2146.00,-0.0010
2145.00,-0.0010
2144.00,-0.0009
2143.00,-0.0009
2142.00,-0.0008
2141.00,-0.0008
2140.00,-0.0008
2139.00,-0.0008
2138.00,-0.0009
2137.00,-0.0011
2136.00,-0.0013
2135.00,-0.0015
2134.00,-0.0015
2133.00,-0.0014
2132.00,-0.0012
2131.00,-0.0009
2130.00,-0.0007
2129.00,-0.0006
2128.00,-0.0005
2127.00,-0.0004
2126.00,-0.0004
2125.00,-0.0002
2124.00,-0.0001
2123.00,-0.0000
2122.00,0.0000
2121.00,0.0000
2120.00,0.0001
2119.00,0.0001
2118.00,0.0003
2117.00,0.0004
2116.00,0.0005
2115.00,0.0006
2114.00,0.0006
2113.00,0.0005
2112.00,0.0005
2111.00,0.0004
2110.00,0.0004
2109.00,0.0004
2108.00,0.0004
2107.00,0.0004
2106.00,0.0004
2105.00,0.0005
2104.00,0.0005
2103.00,0.0005
2102.00,0.0005
2101.00,0.0005
2100.00,0.0005
2099.00,0.0004
2098.00,0.0003
2097.00,0.0001
2096.00,-0.0000
2095.00,-0.0001
2094.00,-0.0000
2093.00,0.0001
2092.00,0.0003
2091.00,0.0004
2090.00,0.0004
2089.00,0.0004
2088.00,0.0004
2087.00,0.0005
2086.00,0.0005
2085.00,0.0006
2084.00,0.0006
2083.00,0.0007
2082.00,0.0006
2081.00,0.0007
2080.00,0.0007
2079.00,0.0007
2078.00,0.0007
2077.00,0.0007
2076.00,0.0007
2075.00,0.0006
2074.00,0.0006
2073.00,0.0006
2072.00,0.0006
2071.00,0.0005
2070.00,0.0004
2069.00,0.0003
2068.00,0.0003
2067.00,0.0002
2066.00,0.0002
2065.00,0.0003
2064.00,0.0003
2063.00,0.0004
2062.00,0.0004
2061.00,0.0003
2060.00,0.0003
2059.00,0.0003
2058.00,0.0004
2057.00,0.0004
2056.00,0.0004
2055.00,0.0004
2054.00,0.0006
2053.00,0.0009
2052.00,0.0012
2051.00,0.0013
2050.00,0.0011
2049.00,0.0008
2048.00,0.0007
2047.00,0.0006
2046.00,0.0006
2045.00,0.0005
2044.00,0.0005
2043.00,0.0005
2042.00,0.0005
2041.00,0.0006
2040.00,0.0008
2039.00,0.0010
2038.00,0.0011
2037.00,0.0010
2036.00,0.0008
2035.00,0.0004
2034.00,0.0001
2033.00,-0.0001
2032.00,-0.0001
2031.00,-0.0001
2030.00,-0.0001
2029.00,-0.0001
2028.00,-0.0001
2027.00,-0.0001
2026.00,-0.0002
2025.00,-0.0003
2024.00,-0.0003
2023.00,-0.0002
2022.00,-0.0000
2021.00,0.0001
2020.00,0.0002
2019.00,0.0003
2018.00,0.0002
2017.00,0.0001
2016.00,0.0000
2015.00,-0.0001
2014.00,-0.0001
2013.00,-0.0001
2012.00,-0.0001
2011.00,-0.0000
2010.00,-0.0000
2009.00,-0.0001
2008.00,-0.0003
2007.00,-0.0004
2006.00,-0.0004
2005.00,-0.0004
2004.00,-0.0005
2003.00,-0.0004
2002.00,-0.0003
2001.00,-0.0001
2000.00,-0.0000
1999.00,0.0000
1998.00,-0.0000
1997.00,-0.0000
1996.00,0.0000
1995.00,0.0001
1994.00,0.0001
1993.00,0.0000
1992.00,0.0001
1991.00,0.0002
1990.00,0.0004
1989.00,0.0005
1988.00,0.0006
1987.00,0.0007
1986.00,0.0009
1985.00,0.0010
1984.00,0.0012
1983.00,0.0014
1982.00,0.0016
1981.00,0.0016
1980.00,0.0014
1979.00,0.0010
1978.00,0.0005
1977.00,0.0002
1976.00,0.0001
1975.00,0.0000
1974.00,0.0000
1973.00,0.0001
1972.00,0.0002
1971.00,0.0004
1970.00,0.0005
1969.00,0.0005
1968.00,0.0006
1967.00,0.0007
1966.00,0.0008
1965.00,0.0008
1964.00,0.0009
1963.00,0.0009
1962.00,0.0009
1961.00,0.0009
1960.00,0.0008
1959.00,0.0008
1958.00,0.0009
1957.00,0.0011
1956.00,0.0012
1955.00,0.0014
1954.00,0.0016
1953.00,0.0017
1952.00,0.0018
1951.00,0.0019
1950.00,0.0019
1949.00,0.0021
1948.00,0.0022
1947.00,0.0024
1946.00,0.0025
1945.00,0.0025
1944.00,0.0026
1943.00,0.0026
1942.00,0.0026
1941.00,0.0025
1940.00,0.0025
1939.00,0.0024
1938.00,0.0023
1937.00,0.0022
1936.00,0.0021
1935.00,0.0019
1934.00,0.0017
1933.00,0.0014
1932.00,0.0012
1931.00,0.0011
1930.00,0.0010
1929.00,0.0010
1928.00,0.0009
1927.00,0.0008
1926.00,0.0007
1925.00,0.0006
1924.00,0.0006
1923.00,0.0005
1922.00,0.0006
1921.00,0.0006
1920.00,0.0006
1919.00,0.0006
1918.00,0.0005
1917.00,0.0005
1916.00,0.0004
1915.00,0.0004
1914.00,0.0004
1913.00,0.0004
1912.00,0.0004
1911.00,0.0004
1910.00,0.0004
1909.00,0.0003
1908.00,0.0003
1907.00,0.0004
1906.00,0.0005
1905.00,0.0005
1904.00,0.0006
1903.00,0.0006
1902.00,0.0007
1901.00,0.0008
1900.00,0.0008
1899.00,0.0008
1898.00,0.0009
1897.00,0.0009
1896.00,0.0010
1895.00,0.0010
1894.00,0.0011
1893.00,0.0012
1892.00,0.0014
1891.00,0.0015
1890.00,0.0016
1889.00,0.0017
1888.00,0.0017
1887.00,0.0017
1886.00,0.0018
1885.00,0.0019
1884.00,0.0019
1883.00,0.0021
1882.00,0.0022
1881.00,0.0022
1880.00,0.0023
1879.00,0.0023
1878.00,0.0023
1877.00,0.0023
1876.00,0.0023
1875.00,0.0023
1874.00,0.0023
1873.00,0.0024
1872.00,0.0025
1871.00,0.0026
1870.00,0.0027
1869.00,0.0027
1868.00,0.0026
1867.00,0.0025
1866.00,0.0024
1865.00,0.0023
1864.00,0.0022
1863.00,0.0021
1862.00,0.0020
1861.00,0.0018
1860.00,0.0017
1859.00,0.0015
1858.00,0.0014
1857.00,0.0013
1856.00,0.0012
1855.00,0.0011
1854.00,0.0010
1853.00,0.0009
1852.00,0.0008
1851.00,0.0007
1850.00,0.0007
1849.00,0.0007
1848.00,0.0007
1847.00,0.0007
1846.00,0.0007
1845.00,0.0007
1844.00,0.0007
1843.00,0.0007
1842.00,0.0006
1841.00,0.0006
1840.00,0.0006
1839.00,0.0006
1838.00,0.0007
1837.00,0.0007
1836.00,0.0007
1835.00,0.0007
1834.00,0.0007
1833.00,0.0008
1832.00,0.0008
1831.00,0.0009
1830.00,0.0010
1829.00,0.0011
1828.00,0.0011
1827.00,0.0012
1826.00,0.0013
1825.00,0.0013
1824.00,0.0014
1823.00,0.0015
1822.00,0.0016
1821.00,0.0016
1820.00,0.0016
1819.00,0.0016
1818.00,0.0016
1817.00,0.0016
1816.00,0.0017
1815.00,0.0018
1814.00,0.0020
1813.00,0.0021
1812.00,0.0022
1811.00,0.0024
1810.00,0.0025
1809.00,0.0026
1808.00,0.0027
1807.00,0.0028
1806.00,0.0029
1805.00,0.0029
1804.00,0.0030
1803.00,0.0030
1802.00,0.0031
1801.00,0.0031
1800.00,0.0030
1799.00,0.0030
1798.00,0.0029
1797.00,0.0028
1796.00,0.0027
1795.00,0.0026
1794.00,0.0024
1793.00,0.0023
1792.00,0.0021
1791.00,0.0019
1790.00,0.0018
1789.00,0.0017
1788.00,0.0016
1787.00,0.0016
1786.00,0.0015
1785.00,0.0015
1784.00,0.0015
1783.00,0.0015
1782.00,0.0015
1781.00,0.0014
1780.00,0.0014
1779.00,0.0014
1778.00,0.0014
1777.00,0.0015
1776.00,0.0015
1775.00,0.0016
1774.00,0.0016
1773.00,0.0016
1772.00,0.0016
1771.00,0.0016
1770.00,0.0017
1769.00,0.0017
1768.00,0.0016
1767.00,0.0016
1766.00,0.0016
1765.00,0.0017
1764.00,0.0017
1763.00,0.0018
1762.00,0.0019
1761.00,0.0020
1760.00,0.0020
1759.00,0.0021
1758.00,0.0023
1757.00,0.0024
1756.00,0.0025
1755.00,0.0027
1754.00,0.0028
1753.00,0.0029
1752.00,0.0030
1751.00,0.0031
1750.00,0.0032
1749.00,0.0033
1748.00,0.0034
1747.00,0.0035
1746.00,0.0036
1745.00,0.0036
1744.00,0.0037
1743.00,0.0037
1742.00,0.0038
1741.00,0.0038
1740.00,0.0037
1739.00,0.0037
1738.00,0.0037
1737.00,0.0038
1736.00,0.0038
1735.00,0.0038
1734.00,0.0037
1733.00,0.0036
1732.00,0.0035
1731.00,0.0034
1730.00,0.0034
1729.00,0.0033
1728.00,0.0032
1727.00,0.0032
1726.00,0.0031
1725.00,0.0031
1724.00,0.0031
1723.00,0.0030
1722.00,0.0030
1721.00,0.0030
1720.00,0.0030
1719.00,0.0030
1718.00,0.0029
1717.00,0.0028
1716.00,0.0027
1715.00,0.0027
1714.00,0.0027
1713.00,0.0026
1712.00,0.0026
1711.00,0.0026
1710.00,0.0026
1709.00,0.0027
1708.00,0.0027
1707.00,0.0028
1706.00,0.0028
1705.00,0.0028
1704.00,0.0029
1703.00,0.0030
1702.00,0.0031
1701.00,0.0032
1700.00,0.0033
1699.00,0.0033
1698.00,0.0033
1697.00,0.0034
1696.00,0.0035
1695.00,0.0037
1694.00,0.0039
1693.00,0.0041
1692.00,0.0044
1691.00,0.0046
1690.00,0.0048
1689.00,0.0050
1688.00,0.0052
1687.00,0.0054
1686.00,0.0055
1685.00,0.0056
1684.00,0.0058
1683.00,0.0058
1682.00,0.0059
1681.00,0.0060
1680.00,0.0060
1679.00,0.0061
1678.00,0.0061
1677.00,0.0062
1676.00,0.0063
1675.00,0.0063
1674.00,0.0063
1673.00,0.0063
1672.00,0.0063
1671.00,0.0064
1670.00,0.0064
1669.00,0.0065
1668.00,0.0065
1667.00,0.0064
1666.00,0.0064
1665.00,0.0064
1664.00,0.0063
1663.00,0.0063
1662.00,0.0061
1661.00,0.0060
1660.00,0.0059
1659.00,0.0058
1658.00,0.0058
1657.00,0.0057
1656.00,0.0057
1655.00,0.0057
1654.00,0.0055
1653.00,0.0052
1652.00,0.0048
1651.00,0.0047
1650.00,0.0046
1649.00,0.0046
1648.00,0.0045
1647.00,0.0043
1646.00,0.0041
1645.00,0.0040
1644.00,0.0038
1643.00,0.0037
1642.00,0.0036
1641.00,0.0035
1640.00,0.0035
1639.00,0.0034
1638.00,0.0033
1637.00,0.0032
1636.00,0.0031
1635.00,0.0030
1634.00,0.0030
1633.00,0.0029
1632.00,0.0029
1631.00,0.0028
1630.00,0.0028
1629.00,0.0028
1628.00,0.0028
1627.00,0.0029
1626.00,0.0029
1625.00,0.0029
1624.00,0.0030
1623.00,0.0030
1622.00,0.0030
1621.00,0.0031
1620.00,0.0031
1619.00,0.0031
1618.00,0.0032
1617.00,0.0032
1616.00,0.0034
1615.00,0.0035
1614.00,0.0037
1613.00,0.0040
1612.00,0.0044
1611.00,0.0049
1610.00,0.0057
1609.00,0.0067
1608.00,0.0081
1607.00,0.0098
1606.00,0.0118
1605.00,0.0140
1604.00,0.0163
1603.00,0.0182
1602.00,0.0195
1601.00,0.0199
1600.00,0.0194
1599.00,0.0179
1598.00,0.0160
1597.00,0.0138
1596.00,0.0119
1595.00,0.0102
1594.00,0.0089
1593.00,0.0079
1592.00,0.0071
1591.00,0.0065
1590.00,0.0061
1589.00,0.0059
1588.00,0.0060
1587.00,0.0064
1586.00,0.0071
1585.00,0.0078
1584.00,0.0084
1583.00,0.0085
1582.00,0.0081
1581.00,0.0073
1580.00,0.0064
1579.00,0.0055
1578.00,0.0047
1577.00,0.0041
1576.00,0.0035
1575.00,0.0032
1574.00,0.0030
1573.00,0.0028
1572.00,0.0027
1571.00,0.0026
1570.00,0.0025
1569.00,0.0024
1568.00,0.0023
1567.00,0.0022
1566.00,0.0022
1565.00,0.0021
1564.00,0.0021
1563.00,0.0021
1562.00,0.0021
1561.00,0.0021
1560.00,0.0021
1559.00,0.0021
1558.00,0.0021
1557.00,0.0022
1556.00,0.0022
1555.00,0.0022
1554.00,0.0023
1553.00,0.0024
1552.00,0.0025
1551.00,0.0026
1550.00,0.0027
1549.00,0.0028
1548.00,0.0029
1547.00,0.0030
1546.00,0.0031
1545.00,0.0032
1544.00,0.0032
1543.00,0.0033
1542.00,0.0033
1541.00,0.0032
1540.00,0.0031
1539.00,0.0030
1538.00,0.0029
1537.00,0.0028
1536.00,0.0028
1535.00,0.0027
1534.00,0.0026
1533.00,0.0025
1532.00,0.0024
1531.00,0.0023
1530.00,0.0022
1529.00,0.0022
1528.00,0.0021
1527.00,0.0021
1526.00,0.0020
1525.00,0.0020
1524.00,0.0020
1523.00,0.0020
1522.00,0.0019
1521.00,0.0019
1520.00,0.0020
1519.00,0.0020
1518.00,0.0021
1517.00,0.0021
1516.00,0.0022
1515.00,0.0023
1514.00,0.0023
1513.00,0.0024
1512.00,0.0024
1511.00,0.0025
1510.00,0.0027
1509.00,0.0028
1508.00,0.0029
1507.00,0.0032
1506.00,0.0035
1505.00,0.0038
1504.00,0.0042
1503.00,0.0048
1502.00,0.0056
1501.00,0.0067
1500.00,0.0084
1499.00,0.0109
1498.00,0.0149
1497.00,0.0210
1496.00,0.0289
1495.00,0.0370
1494.00,0.0436
1493.00,0.0473
1492.00,0.0473
1491.00,0.0433
1490.00,0.0363
1489.00,0.0288
1488.00,0.0227
1487.00,0.0183
1486.00,0.0151
1485.00,0.0126
1484.00,0.0107
1483.00,0.0092
1482.00,0.0080
1481.00,0.0071
1480.00,0.0064
1479.00,0.0060
1478.00,0.0057
1477.00,0.0055
1476.00,0.0053
1475.00,0.0052
1474.00,0.0052
1473.00,0.0051
1472.00,0.0051
1471.00,0.0052
1470.00,0.0053
1469.00,0.0055
1468.00,0.0057
1467.00,0.0060
1466.00,0.0062
1465.00,0.0065
1464.00,0.0069
1463.00,0.0073
1462.00,0.0078
1461.00,0.0085
1460.00,0.0095
1459.00,0.0112
1458.00,0.0146
1457.00,0.0205
1456.00,0.0281
1455.00,0.0354
1454.00,0.0415
1453.00,0.0461
1452.00,0.0484
1451.00,0.0480
1450.00,0.0454
1449.00,0.0419
1448.00,0.0381
1447.00,0.0348
1446.00,0.0321
1445.00,0.0298
1444.00,0.0276
1443.00,0.0254
1442.00,0.0234
1441.00,0.0216
1440.00,0.0200
1439.00,0.0186
1438.00,0.0172
1437.00,0.0156
1436.00,0.0138
1435.00,0.0124
1434.00,0.0112
1433.00,0.0103
1432.00,0.0094
1431.00,0.0086
1430.00,0.0080
1429.00,0.0074
1428.00,0.0069
1427.00,0.0066
1426.00,0.0064
1425.00,0.0061
1424.00,0.0059
1423.00,0.0057
1422.00,0.0055
1421.00,0.0054
1420.00,0.0052
1419.00,0.0050
1418.00,0.0048
1417.00,0.0046
1416.00,0.0045
1415.00,0.0044
1414.00,0.0043
1413.00,0.0043
1412.00,0.0042
1411.00,0.0042
1410.00,0.0041
1409.00,0.0041
1408.00,0.0041
1407.00,0.0041
1406.00,0.0041
1405.00,0.0041
1404.00,0.0041
1403.00,0.0041
1402.00,0.0041
1401.00,0.0041
1400.00,0.0041
1399.00,0.0042
1398.00,0.0042
1397.00,0.0043
1396.00,0.0044
1395.00,0.0045
1394.00,0.0047
1393.00,0.0049
1392.00,0.0051
1391.00,0.0053
1390.00,0.0056
1389.00,0.0059
1388.00,0.0063
1387.00,0.0066
1386.00,0.0070
1385.00,0.0074
1384.00,0.0077
1383.00,0.0081
1382.00,0.0084
1381.00,0.0087
1380.00,0.0090
1379.00,0.0093
1378.00,0.0096
1377.00,0.0099
1376.00,0.0102
1375.00,0.0104
1374.00,0.0106
1373.00,0.0106
1372.00,0.0106
1371.00,0.0106
1370.00,0.0106
1369.00,0.0105
1368.00,0.0104
1367.00,0.0103
1366.00,0.0103
1365.00,0.0102
1364.00,0.0102
1363.00,0.0101
1362.00,0.0099
1361.00,0.0098
1360.00,0.0096
1359.00,0.0094
1358.00,0.0093
1357.00,0.0091
1356.00,0.0090
1355.00,0.0089
1354.00,0.0088
1353.00,0.0088
1352.00,0.0087
1351.00,0.0087
1350.00,0.0087
1349.00,0.0087
1348.00,0.0086
1347.00,0.0086
1346.00,0.0085
1345.00,0.0083
1344.00,0.0082
1343.00,0.0080
1342.00,0.0079
1341.00,0.0077
1340.00,0.0076
1339.00,0.0075
1338.00,0.0075
1337.00,0.0076
1336.00,0.0077
1335.00,0.0078
1334.00,0.0080
1333.00,0.0083
1332.00,0.0085
1331.00,0.0087
1330.00,0.0089
1329.00,0.0090
1328.00,0.0090
1327.00,0.0090
1326.00,0.0089
1325.00,0.0088
1324.00,0.0087
1323.00,0.0085
1322.00,0.0085
1321.00,0.0084
1320.00,0.0084
1319.00,0.0084
1318.00,0.0085
1317.00,0.0085
1316.00,0.0086
1315.00,0.0087
1314.00,0.0088
1313.00,0.0089
1312.00,0.0088
1311.00,0.0088
1310.00,0.0087
1309.00,0.0086
1308.00,0.0085
1307.00,0.0083
1306.00,0.0082
1305.00,0.0081
1304.00,0.0080
1303.00,0.0079
1302.00,0.0078
1301.00,0.0077
1300.00,0.0077
1299.00,0.0077
1298.00,0.0077
1297.00,0.0078
1296.00,0.0079
1295.00,0.0079
1294.00,0.0080
1293.00,0.0080
1292.00,0.0080
1291.00,0.0079
1290.00,0.0078
1289.00,0.0077
1288.00,0.0075
1287.00,0.0074
1286.00,0.0073
1285.00,0.0072
1284.00,0.0071
1283.00,0.0070
1282.00,0.0070
1281.00,0.0069
1280.00,0.0068
1279.00,0.0067
1278.00,0.0066
1277.00,0.0065
1276.00,0.0063
1275.00,0.0061
1274.00,0.0060
1273.00,0.0058
1272.00,0.0057
1271.00,0.0055
1270.00,0.0054
1269.00,0.0053
1268.00,0.0052
1267.00,0.0051
1266.00,0.0050
1265.00,0.0050
1264.00,0.0049
1263.00,0.0049
1262.00,0.0048
1261.00,0.0047
1260.00,0.0047
1259.00,0.0047
1258.00,0.0047
1257.00,0.0047
1256.00,0.0047
1255.00,0.0047
1254.00,0.0047
1253.00,0.0047
1252.00,0.0047
1251.00,0.0047
1250.00,0.0047
1249.00,0.0047
1248.00,0.0048
1247.00,0.0048
1246.00,0.0048
1245.00,0.0049
1244.00,0.0049
1243.00,0.0049
1242.00,0.0049
1241.00,0.0049
1240.00,0.0048
1239.00,0.0048
1238.00,0.0048
1237.00,0.0048
1236.00,0.0048
1235.00,0.0047
1234.00,0.0047
1233.00,0.0047
1232.00,0.0047
1231.00,0.0047
1230.00,0.0047
1229.00,0.0047
1228.00,0.0048
1227.00,0.0048
1226.00,0.0048
1225.00,0.0048
1224.00,0.0048
1223.00,0.0048
1222.00,0.0049
1221.00,0.0049
1220.00,0.0048
1219.00,0.0048
1218.00,0.0048
1217.00,0.0048
1216.00,0.0048
1215.00,0.0049
1214.00,0.0049
1213.00,0.0050
1212.00,0.0051
1211.00,0.0052
1210.00,0.0053
1209.00,0.0054
1208.00,0.0055
1207.00,0.0057
1206.00,0.0058
1205.00,0.0060
1204.00,0.0061
1203.00,0.0063
1202.00,0.0065
1201.00,0.0066
1200.00,0.0068
1199.00,0.0069
1198.00,0.0071
1197.00,0.0072
1196.00,0.0072
1195.00,0.0072
1194.00,0.0073
1193.00,0.0073
1192.00,0.0073
1191.00,0.0074
1190.00,0.0074
1189.00,0.0075
1188.00,0.0077
1187.00,0.0079
1186.00,0.0083
1185.00,0.0088
1184.00,0.0092
1183.00,0.0096
1182.00,0.0099
1181.00,0.0100
1180.00,0.0098
1179.00,0.0093
1178.00,0.0087
1177.00,0.0080
1176.00,0.0074
1175.00,0.0068
1174.00,0.0065
1173.00,0.0062
1172.00,0.0060
1171.00,0.0059
1170.00,0.0058
1169.00,0.0058
1168.00,0.0057
1167.00,0.0057
1166.00,0.0058
1165.00,0.0058
1164.00,0.0059
1163.00,0.0060
1162.00,0.0063
1161.00,0.0067
1160.00,0.0072
1159.00,0.0078
1158.00,0.0085
1157.00,0.0091
1156.00,0.0096
1155.00,0.0099
1154.00,0.0099
1153.00,0.0096
1152.00,0.0089
1151.00,0.0081
1150.00,0.0073
1149.00,0.0066
1148.00,0.0060
1147.00,0.0055
1146.00,0.0052
1145.00,0.0050
1144.00,0.0047
1143.00,0.0045
1142.00,0.0044
1141.00,0.0042
1140.00,0.0041
1139.00,0.0040
1138.00,0.0039
1137.00,0.0038
1136.00,0.0037
1135.00,0.0037
1134.00,0.0038
1133.00,0.0038
1132.00,0.0038
1131.00,0.0038
1130.00,0.0038
1129.00,0.0038
1128.00,0.0038
1127.00,0.0038
1126.00,0.0039
1125.00,0.0039
1124.00,0.0039
1123.00,0.0040
1122.00,0.0041
1121.00,0.0042
1120.00,0.0043
1119.00,0.0045
1118.00,0.0046
1117.00,0.0048
1116.00,0.0049
1115.00,0.0050
1114.00,0.0051
1113.00,0.0052
1112.00,0.0052
1111.00,0.0052
1110.00,0.0052
1109.00,0.0052
1108.00,0.0052
1107.00,0.0051
1106.00,0.0051
1105.00,0.0051
1104.00,0.0052
1103.00,0.0052
1102.00,0.0053
1101.00,0.0054
1100.00,0.0055
1099.00,0.0055
1098.00,0.0056
1097.00,0.0057
1096.00,0.0057
1095.00,0.0058
1094.00,0.0059
1093.00,0.0059
1092.00,0.0060
1091.00,0.0061
1090.00,0.0062
1089.00,0.0064
1088.00,0.0066
1087.00,0.0068
1086.00,0.0070
1085.00,0.0072
1084.00,0.0075
1083.00,0.0078
1082.00,0.0081
1081.00,0.0084
1080.00,0.0087
1079.00,0.0090
1078.00,0.0093
1077.00,0.0097
1076.00,0.0101
1075.00,0.0107
1074.00,0.0113
1073.00,0.0118
1072.00,0.0123
1071.00,0.0128
1070.00,0.0131
1069.00,0.0133
1068.00,0.0132
1067.00,0.0130
1066.00,0.0127
1065.00,0.0123
1064.00,0.0118
1063.00,0.0113
1062.00,0.0108
1061.00,0.0104
1060.00,0.0099
1059.00,0.0095
1058.00,0.0092
1057.00,0.0089
1056.00,0.0087
1055.00,0.0084
1054.00,0.0082
1053.00,0.0079
1052.00,0.0077
1051.00,0.0074
1050.00,0.0073
1049.00,0.0071
1048.00,0.0070
1047.00,0.0068
1046.00,0.0068
1045.00,0.0067
1044.00,0.0066
1043.00,0.0066
1042.00,0.0067
1041.00,0.0068
1040.00,0.0070
1039.00,0.0073
1038.00,0.0078
1037.00,0.0087
1036.00,0.0099
1035.00,0.0115
1034.00,0.0135
1033.00,0.0157
1032.00,0.0179
1031.00,0.0199
1030.00,0.0216
1029.00,0.0227
1028.00,0.0231
1027.00,0.0227
1026.00,0.0217
1025.00,0.0201
1024.00,0.0184
1023.00,0.0168
1022.00,0.0155
1021.00,0.0144
1020.00,0.0134
1019.00,0.0126
1018.00,0.0120
1017.00,0.0114
1016.00,0.0109
1015.00,0.0105
1014.00,0.0100
1013.00,0.0097
1012.00,0.0093
1011.00,0.0090
1010.00,0.0088
1009.00,0.0088
1008.00,0.0088
1007.00,0.0089
1006.00,0.0092
1005.00,0.0094
1004.00,0.0096
1003.00,0.0096
1002.00,0.0094
1001.00,0.0090
1000.00,0.0084
999.00,0.0078
998.00,0.0073
997.00,0.0070
996.00,0.0068
995.00,0.0067
994.00,0.0067
993.00,0.0067
992.00,0.0067
991.00,0.0067
990.00,0.0068
989.00,0.0070
988.00,0.0071
987.00,0.0073
986.00,0.0076
985.00,0.0078
984.00,0.0080
983.00,0.0082
982.00,0.0084
981.00,0.0085
980.00,0.0085
979.00,0.0084
978.00,0.0084
977.00,0.0082
976.00,0.0080
975.00,0.0079
974.00,0.0078
973.00,0.0077
972.00,0.0077
971.00,0.0078
970.00,0.0080
969.00,0.0083
968.00,0.0086
967.00,0.0089
966.00,0.0092
965.00,0.0094
964.00,0.0094
963.00,0.0093
962.00,0.0090
961.00,0.0087
960.00,0.0082
959.00,0.0078
958.00,0.0074
957.00,0.0071
956.00,0.0069
955.00,0.0067
954.00,0.0066
953.00,0.0065
952.00,0.0065
951.00,0.0065
950.00,0.0066
949.00,0.0067
948.00,0.0068
947.00,0.0069
946.00,0.0071
945.00,0.0072
944.00,0.0073
943.00,0.0073
942.00,0.0073
941.00,0.0072
940.00,0.0070
939.00,0.0068
938.00,0.0066
937.00,0.0064
936.00,0.0061
935.00,0.0059
934.00,0.0057
933.00,0.0055
932.00,0.0053
931.00,0.0052
930.00,0.0051
929.00,0.0050
928.00,0.0050
927.00,0.0050
926.00,0.0051
925.00,0.0051
924.00,0.0052
923.00,0.0053
922.00,0.0054
921.00,0.0056
920.00,0.0058
919.00,0.0061
918.00,0.0065
917.00,0.0070
916.00,0.0076
915.00,0.0083
914.00,0.0092
913.00,0.0102
912.00,0.0112
911.00,0.0123
910.00,0.0134
909.00,0.0144
908.00,0.0151
907.00,0.0155
906.00,0.0155
905.00,0.0152
904.00,0.0145
903.00,0.0136
902.00,0.0125
901.00,0.0114
900.00,0.0102
899.00,0.0091
898.00,0.0082
897.00,0.0074
896.00,0.0068
895.00,0.0063
894.00,0.0058
893.00,0.0055
892.00,0.0052
891.00,0.0050
890.00,0.0049
889.00,0.0048
888.00,0.0047
887.00,0.0045
886.00,0.0045
885.00,0.0044
884.00,0.0042
883.00,0.0041
882.00,0.0040
881.00,0.0039
880.00,0.0039
879.00,0.0038
878.00,0.0039
877.00,0.0039
876.00,0.0038
875.00,0.0038
874.00,0.0037
873.00,0.0037
872.00,0.0036
871.00,0.0036
870.00,0.0036
869.00,0.0036
868.00,0.0035
867.00,0.0035
866.00,0.0034
865.00,0.0034
864.00,0.0034
863.00,0.0034
862.00,0.0035
861.00,0.0035
860.00,0.0035
859.00,0.0035
858.00,0.0036
857.00,0.0037
856.00,0.0038
855.00,0.0039
854.00,0.0040
853.00,0.0042
852.00,0.0043
851.00,0.0046
850.00,0.0050
849.00,0.0055
848.00,0.0060
847.00,0.0064
846.00,0.0069
845.00,0.0072
844.00,0.0075
843.00,0.0077
842.00,0.0079
841.00,0.0079
840.00,0.0078
839.00,0.0075
838.00,0.0072
837.00,0.0067
836.00,0.0061
835.00,0.0056
834.00,0.0051
833.00,0.0047
832.00,0.0043
831.00,0.0040
830.00,0.0039
829.00,0.0037
828.00,0.0036
827.00,0.0036
826.00,0.0036
825.00,0.0036
824.00,0.0035
823.00,0.0034
822.00,0.0034
821.00,0.0034
820.00,0.0034
819.00,0.0034
818.00,0.0034
817.00,0.0035
816.00,0.0035
815.00,0.0036
814.00,0.0037
813.00,0.0037
812.00,0.0037
811.00,0.0037
810.00,0.0037
809.00,0.0037
808.00,0.0037
807.00,0.0037
806.00,0.0038
805.00,0.0039
804.00,0.0039
803.00,0.0039
802.00,0.0041
801.00,0.0042
800.00,0.0044
799.00,0.0045
798.00,0.0048
797.00,0.0050
796.00,0.0051
795.00,0.0054
794.00,0.0057
793.00,0.0060
792.00,0.0063
791.00,0.0067
790.00,0.0072
789.00,0.0077
788.00,0.0081
787.00,0.0087
786.00,0.0093
785.00,0.0099
784.00,0.0105
783.00,0.0112
782.00,0.0120
781.00,0.0130
780.00,0.0140
779.00,0.0151
778.00,0.0165
777.00,0.0180
776.00,0.0196
775.00,0.0214
774.00,0.0234
773.00,0.0255
772.00,0.0278
771.00,0.0302
770.00,0.0328
769.00,0.0355
768.00,0.0381
767.00,0.0407
766.00,0.0434
765.00,0.0459
764.00,0.0484
763.00,0.0509
762.00,0.0535
761.00,0.0561
760.00,0.0587
759.00,0.0611
758.00,0.0633
757.00,0.0650
756.00,0.0661
755.00,0.0666
754.00,0.0667
753.00,0.0666
752.00,0.0663
751.00,0.0660
750.00,0.0659
749.00,0.0657
748.00,0.0651
747.00,0.0641
746.00,0.0623
745.00,0.0596
744.00,0.0559
743.00,0.0517
742.00,0.0474
741.00,0.0430
740.00,0.0389
739.00,0.0351
738.00,0.0317
737.00,0.0285
736.00,0.0253
735.00,0.0223
734.00,0.0195
733.00,0.0170
732.00,0.0147
731.00,0.0128
730.00,0.0113
729.00,0.0102
728.00,0.0093
727.00,0.0086
726.00,0.0082
725.00,0.0080
724.00,0.0078
723.00,0.0077
722.00,0.0076
721.00,0.0076
720.00,0.0076
719.00,0.0077
718.00,0.0080
717.00,0.0084
716.00,0.0090
715.00,0.0098
714.00,0.0109
713.00,0.0125
712.00,0.0146
711.00,0.0174
710.00,0.0214
709.00,0.0265
708.00,0.0328
707.00,0.0404
706.00,0.0493
705.00,0.0594
704.00,0.0704
703.00,0.0824
702.00,0.0953
701.00,0.1086
700.00,0.1222
699.00,0.1359
698.00,0.1495
697.00,0.1620
696.00,0.1716
695.00,0.1764
694.00,0.1746
693.00,0.1655
692.00,0.1505
691.00,0.1326
690.00,0.1148
689.00,0.0988
688.00,0.0854
687.00,0.0746
686.00,0.0661
685.00,0.0593
684.00,0.0536
683.00,0.0489
682.00,0.0451
681.00,0.0419
680.00,0.0391
679.00,0.0368
678.00,0.0348
677.00,0.0331
676.00,0.0315
675.00,0.0302
674.00,0.0291
673.00,0.0281
672.00,0.0270
671.00,0.0262
670.00,0.0255
669.00,0.0247
668.00,0.0235
667.00,0.0223
666.00,0.0215
665.00,0.0208
664.00,0.0201
663.00,0.0193
662.00,0.0186
661.00,0.0179
660.00,0.0171
659.00,0.0164
658.00,0.0159
657.00,0.0153
656.00,0.0146
655.00,0.0140
654.00,0.0135
653.00,0.0131
652.00,0.0127
651.00,0.0123
650.00,0.0121
649.00,0.0118
648.00,0.0114
647.00,0.0110
646.00,0.0108
645.00,0.0106
644.00,0.0104
643.00,0.0103
642.00,0.0102
641.00,0.0102
640.00,0.0101
639.00,0.0101
638.00,0.0103
637.00,0.0106
636.00,0.0108
635.00,0.0110
634.00,0.0113
633.00,0.0116
632.00,0.0117
631.00,0.0119
630.00,0.0123
629.00,0.0126
628.00,0.0127
627.00,0.0128
626.00,0.0129
625.00,0.0131
624.00,0.0132
623.00,0.0135
622.00,0.0138
621.00,0.0140
620.00,0.0139
619.00,0.0136
618.00,0.0132
617.00,0.0129
616.00,0.0125
615.00,0.0122
614.00,0.0120
613.00,0.0119
612.00,0.0116
611.00,0.0114
610.00,0.0114
609.00,0.0113
608.00,0.0111
607.00,0.0109
606.00,0.0109
605.00,0.0108
604.00,0.0106
603.00,0.0106
602.00,0.0108
601.00,0.0111
600.00,0.0112
599.00,0.0113
598.00,0.0115
597.00,0.0116
596.00,0.0117
595.00,0.0118
594.00,0.0120
593.00,0.0123
592.00,0.0125
591.00,0.0126
590.00,0.0128
589.00,0.0130
588.00,0.0131
587.00,0.0132
586.00,0.0136
585.00,0.0140
584.00,0.0143
583.00,0.0147
582.00,0.0152
581.00,0.0157
580.00,0.0161
579.00,0.0166
578.00,0.0173
577.00,0.0181
576.00,0.0190
575.00,0.0200
574.00,0.0210
573.00,0.0220
572.00,0.0227
571.00,0.0235
570.00,0.0245
569.00,0.0254
568.00,0.0261
567.00,0.0268
566.00,0.0278
565.00,0.0288
564.00,0.0296
563.00,0.0304
562.00,0.0312
561.00,0.0321
560.00,0.0329
559.00,0.0337
558.00,0.0346
557.00,0.0355
556.00,0.0363
555.00,0.0371
554.00,0.0381
553.00,0.0392
552.00,0.0402
551.00,0.0413
550.00,0.0426
549.00,0.0440
548.00,0.0455
547.00,0.0471
546.00,0.0491
545.00,0.0512
544.00,0.0532
543.00,0.0553
542.00,0.0574
541.00,0.0592
540.00,0.0605
539.00,0.0614
538.00,0.0619
537.00,0.0616
536.00,0.0605
535.00,0.0586
534.00,0.0563
533.00,0.0535
532.00,0.0503
531.00,0.0469
530.00,0.0438
529.00,0.0408
528.00,0.0377
527.00,0.0349
526.00,0.0325
525.00,0.0303
524.00,0.0283
523.00,0.0265
522.00,0.0252
521.00,0.0240
520.00,0.0227
519.00,0.0218
518.00,0.0212
517.00,0.0208
516.00,0.0200
515.00,0.0194
514.00,0.0189
513.00,0.0184
512.00,0.0177
511.00,0.0170
510.00,0.0166
509.00,0.0161
508.00,0.0154
507.00,0.0147
506.00,0.0142
505.00,0.0138
504.00,0.0132
503.00,0.0128
502.00,0.0126
501.00,0.0125
500.00,0.0122
499.00,0.0120
498.00,0.0120
497.00,0.0119
496.00,0.0114
495.00,0.0110
494.00,0.0108
493.00,0.0107
492.00,0.0104
491.00,0.0103
490.00,0.0105
489.00,0.0105
488.00,0.0102
487.00,0.0100
486.00,0.0102
485.00,0.0102
484.00,0.0098
483.00,0.0095
482.00,0.0096
481.00,0.0096
480.00,0.0092
479.00,0.0088
478.00,0.0088
477.00,0.0089
476.00,0.0085
475.00,0.0082
474.00,0.0082
473.00,0.0082
472.00,0.0080
471.00,0.0079
470.00,0.0083
469.00,0.0084
468.00,0.0080
467.00,0.0076
466.00,0.0080
465.00,0.0084
464.00,0.0084
463.00,0.0083
462.00,0.0085
461.00,0.0085
460.00,0.0081
459.00,0.0077
458.00,0.0079
457.00,0.0081
456.00,0.0079
455.00,0.0076
454.00,0.0077
453.00,0.0077
452.00,0.0074
451.00,0.0072
450.00,0.0074
449.00,0.0075
448.00,0.0072
447.00,0.0070
446.00,0.0075
445.00,0.0079
444.00,0.0078
443.00,0.0079
442.00,0.0085
441.00,0.0086
440.00,0.0080
439.00,0.0074
438.00,0.0074
437.00,0.0074
436.00,0.0071
435.00,0.0069
434.00,0.0073
433.00,0.0075
432.00,0.0071
431.00,0.0067
430.00,0.0069
429.00,0.0069
428.00,0.0063
427.00,0.0058
426.00,0.0062
425.00,0.0069
424.00,0.0070
423.00,0.0073
422.00,0.0081
421.00,0.0086
420.00,0.0079
419.00,0.0071
418.00,0.0074
417.00,0.0074
416.00,0.0065
415.00,0.0060
414.00,0.0068
413.00,0.0075
412.00,0.0070
411.00,0.0066
410.00,0.0072
409.00,0.0079
408.00,0.0076
407.00,0.0074
406.00,0.0084
405.00,0.0087
404.00,0.0074
403.00,0.0062
402.00,0.0069
401.00,0.0079
400.00,0.0066
