Created as New Dataset,Sample 908 By YargerLab Date Thursday, July 24 2025
cm-1,A
4000.00,0.0019
3999.00,0.0019
3998.00,0.0018
3997.00,0.0019
3996.00,0.0019
3995.00,0.0019
3994.00,0.0019
3993.00,0.0019
3992.00,0.0018
3991.00,0.0018
3990.00,0.0018
3989.00,0.0018
3988.00,0.0018
3987.00,0.0018
3986.00,0.0018
3985.00,0.0018
3984.00,0.0019
3983.00,0.0019
3982.00,0.0019
3981.00,0.0019
3980.00,0.0019
3979.00,0.0019
3978.00,0.0019
3977.00,0.0019
3976.00,0.0019
3975.00,0.0020
3974.00,0.0020
3973.00,0.0019
3972.00,0.0019
3971.00,0.0019
3970.00,0.0019
3969.00,0.0019
3968.00,0.0019
3967.00,0.0019
3966.00,0.0019
3965.00,0.0019
3964.00,0.0019
3963.00,0.0019
3962.00,0.0019
3961.00,0.0020
3960.00,0.0019
3959.00,0.0019
3958.00,0.0019
3957.00,0.0020
3956.00,0.0020
3955.00,0.0020
3954.00,0.0020
3953.00,0.0020
3952.00,0.0020
3951.00,0.0019
3950.00,0.0019
3949.00,0.0019
3948.00,0.0019
3947.00,0.0019
3946.00,0.0019
3945.00,0.0019
3944.00,0.0020
3943.00,0.0020
3942.00,0.0020
3941.00,0.0020
3940.00,0.0020
3939.00,0.0019
3938.00,0.0019
3937.00,0.0019
3936.00,0.0019
3935.00,0.0019
3934.00,0.0019
3933.00,0.0019
3932.00,0.0020
3931.00,0.0020
3930.00,0.0020
3929.00,0.0020
3928.00,0.0020
3927.00,0.0020
3926.00,0.0020
3925.00,0.0020
3924.00,0.0020
3923.00,0.0020
3922.00,0.0020
3921.00,0.0020
3920.00,0.0020
3919.00,0.0020
3918.00,0.0020
3917.00,0.0019
3916.00,0.0019
3915.00,0.0019
3914.00,0.0020
3913.00,0.0020
3912.00,0.0020
3911.00,0.0020
3910.00,0.0020
3909.00,0.0020
3908.00,0.0019
3907.00,0.0019
3906.00,0.0019
3905.00,0.0019
3904.00,0.0019
3903.00,0.0018
3902.00,0.0018
3901.00,0.0018
3900.00,0.0017
3899.00,0.0017
3898.00,0.0018
3897.00,0.0018
3896.00,0.0018
3895.00,0.0018
3894.00,0.0018
3893.00,0.0019
3892.00,0.0019
3891.00,0.0019
3890.00,0.0019
3889.00,0.0019
3888.00,0.0019
3887.00,0.0019
3886.00,0.0019
3885.00,0.0019
3884.00,0.0018
3883.00,0.0018
3882.00,0.0018
3881.00,0.0018
3880.00,0.0018
3879.00,0.0018
3878.00,0.0018
3877.00,0.0018
3876.00,0.0018
3875.00,0.0018
3874.00,0.0018
3873.00,0.0018
3872.00,0.0018
3871.00,0.0018
3870.00,0.0018
3869.00,0.0018
3868.00,0.0017
3867.00,0.0017
3866.00,0.0017
3865.00,0.0017
3864.00,0.0017
3863.00,0.0018
3862.00,0.0018
3861.00,0.0018
3860.00,0.0018
3859.00,0.0019
3858.00,0.0019
3857.00,0.0020
3856.00,0.0021
3855.00,0.0020
3854.00,0.0020
3853.00,0.0019
3852.00,0.0018
3851.00,0.0017
3850.00,0.0017
3849.00,0.0017
3848.00,0.0017
3847.00,0.0018
3846.00,0.0018
3845.00,0.0018
3844.00,0.0018
3843.00,0.0018
3842.00,0.0018
3841.00,0.0018
3840.00,0.0018
3839.00,0.0017
3838.00,0.0017
3837.00,0.0017
3836.00,0.0017
3835.00,0.0017
3834.00,0.0017
3833.00,0.0017
3832.00,0.0017
3831.00,0.0017
3830.00,0.0018
3829.00,0.0018
3828.00,0.0018
3827.00,0.0018
3826.00,0.0018
3825.00,0.0018
3824.00,0.0018
3823.00,0.0018
3822.00,0.0018
3821.00,0.0018
3820.00,0.0018
3819.00,0.0018
3818.00,0.0018
3817.00,0.0018
3816.00,0.0018
3815.00,0.0018
3814.00,0.0018
3813.00,0.0018
3812.00,0.0018
3811.00,0.0018
3810.00,0.0018
3809.00,0.0018
3808.00,0.0018
3807.00,0.0018
3806.00,0.0018
3805.00,0.0017
3804.00,0.0017
3803.00,0.0017
3802.00,0.0017
3801.00,0.0018
3800.00,0.0018
3799.00,0.0018
3798.00,0.0017
3797.00,0.0017
3796.00,0.0018
3795.00,0.0018
3794.00,0.0018
3793.00,0.0018
3792.00,0.0018
3791.00,0.0018
3790.00,0.0019
3789.00,0.0019
3788.00,0.0019
3787.00,0.0019
3786.00,0.0019
3785.00,0.0018
3784.00,0.0018
3783.00,0.0018
3782.00,0.0018
3781.00,0.0018
3780.00,0.0018
3779.00,0.0018
3778.00,0.0018
3777.00,0.0018
3776.00,0.0018
3775.00,0.0018
3774.00,0.0018
3773.00,0.0018
3772.00,0.0018
3771.00,0.0018
3770.00,0.0018
3769.00,0.0018
3768.00,0.0018
3767.00,0.0018
3766.00,0.0018
3765.00,0.0018
3764.00,0.0018
3763.00,0.0018
3762.00,0.0018
3761.00,0.0018
3760.00,0.0018
3759.00,0.0018
3758.00,0.0018
3757.00,0.0018
3756.00,0.0018
3755.00,0.0018
3754.00,0.0018
3753.00,0.0018
3752.00,0.0018
3751.00,0.0018
3750.00,0.0018
3749.00,0.0017
3748.00,0.0017
3747.00,0.0017
3746.00,0.0017
3745.00,0.0017
3744.00,0.0017
3743.00,0.0017
3742.00,0.0017
3741.00,0.0016
3740.00,0.0016
3739.00,0.0016
3738.00,0.0016
3737.00,0.0016
3736.00,0.0016
3735.00,0.0016
3734.00,0.0017
3733.00,0.0017
3732.00,0.0017
3731.00,0.0017
3730.00,0.0017
3729.00,0.0017
3728.00,0.0017
3727.00,0.0017
3726.00,0.0017
3725.00,0.0017
3724.00,0.0017
3723.00,0.0017
3722.00,0.0017
3721.00,0.0017
3720.00,0.0017
3719.00,0.0017
3718.00,0.0017
3717.00,0.0017
3716.00,0.0017
3715.00,0.0017
3714.00,0.0017
3713.00,0.0016
3712.00,0.0016
3711.00,0.0017
3710.00,0.0017
3709.00,0.0017
3708.00,0.0017
3707.00,0.0017
3706.00,0.0016
3705.00,0.0016
3704.00,0.0016
3703.00,0.0017
3702.00,0.0017
3701.00,0.0017
3700.00,0.0017
3699.00,0.0017
3698.00,0.0017
3697.00,0.0017
3696.00,0.0017
3695.00,0.0017
3694.00,0.0017
3693.00,0.0017
3692.00,0.0017
3691.00,0.0017
3690.00,0.0017
3689.00,0.0016
3688.00,0.0016
3687.00,0.0016
3686.00,0.0016
3685.00,0.0016
3684.00,0.0016
3683.00,0.0016
3682.00,0.0016
3681.00,0.0016
3680.00,0.0016
3679.00,0.0016
3678.00,0.0016
3677.00,0.0016
3676.00,0.0016
3675.00,0.0016
3674.00,0.0016
3673.00,0.0016
3672.00,0.0015
3671.00,0.0015
3670.00,0.0015
3669.00,0.0016
3668.00,0.0016
3667.00,0.0016
3666.00,0.0016
3665.00,0.0016
3664.00,0.0016
3663.00,0.0016
3662.00,0.0016
3661.00,0.0016
3660.00,0.0017
3659.00,0.0017
3658.00,0.0017
3657.00,0.0017
3656.00,0.0017
3655.00,0.0016
3654.00,0.0016
3653.00,0.0015
3652.00,0.0015
3651.00,0.0014
3650.00,0.0013
3649.00,0.0013
3648.00,0.0013
3647.00,0.0014
3646.00,0.0014
3645.00,0.0014
3644.00,0.0014
3643.00,0.0015
3642.00,0.0015
3641.00,0.0015
3640.00,0.0015
3639.00,0.0016
3638.00,0.0016
3637.00,0.0016
3636.00,0.0015
3635.00,0.0015
3634.00,0.0015
3633.00,0.0015
3632.00,0.0015
3631.00,0.0015
3630.00,0.0015
3629.00,0.0014
3628.00,0.0015
3627.00,0.0015
3626.00,0.0014
3625.00,0.0014
3624.00,0.0014
3623.00,0.0015
3622.00,0.0015
3621.00,0.0015
3620.00,0.0015
3619.00,0.0015
3618.00,0.0015
3617.00,0.0014
3616.00,0.0014
3615.00,0.0014
3614.00,0.0014
3613.00,0.0015
3612.00,0.0015
3611.00,0.0015
3610.00,0.0015
3609.00,0.0015
3608.00,0.0015
3607.00,0.0016
3606.00,0.0016
3605.00,0.0016
3604.00,0.0016
3603.00,0.0016
3602.00,0.0016
3601.00,0.0016
3600.00,0.0016
3599.00,0.0016
3598.00,0.0016
3597.00,0.0016
3596.00,0.0016
3595.00,0.0016
3594.00,0.0016
3593.00,0.0016
3592.00,0.0016
3591.00,0.0016
3590.00,0.0016
3589.00,0.0015
3588.00,0.0015
3587.00,0.0016
3586.00,0.0015
3585.00,0.0015
3584.00,0.0015
3583.00,0.0015
3582.00,0.0016
3581.00,0.0016
3580.00,0.0017
3579.00,0.0017
3578.00,0.0017
3577.00,0.0017
3576.00,0.0018
3575.00,0.0018
3574.00,0.0018
3573.00,0.0018
3572.00,0.0018
3571.00,0.0018
3570.00,0.0018
3569.00,0.0018
3568.00,0.0018
3567.00,0.0018
3566.00,0.0018
3565.00,0.0019
3564.00,0.0019
3563.00,0.0020
3562.00,0.0020
3561.00,0.0020
3560.00,0.0021
3559.00,0.0021
3558.00,0.0022
3557.00,0.0022
3556.00,0.0023
3555.00,0.0023
3554.00,0.0024
3553.00,0.0024
3552.00,0.0025
3551.00,0.0026
3550.00,0.0026
3549.00,0.0027
3548.00,0.0028
3547.00,0.0028
3546.00,0.0030
3545.00,0.0031
3544.00,0.0032
3543.00,0.0034
3542.00,0.0035
3541.00,0.0037
3540.00,0.0039
3539.00,0.0041
3538.00,0.0043
3537.00,0.0045
3536.00,0.0048
3535.00,0.0051
3534.00,0.0055
3533.00,0.0059
3532.00,0.0064
3531.00,0.0069
3530.00,0.0076
3529.00,0.0084
3528.00,0.0092
3527.00,0.0102
3526.00,0.0112
3525.00,0.0122
3524.00,0.0132
3523.00,0.0142
3522.00,0.0150
3521.00,0.0157
3520.00,0.0162
3519.00,0.0165
3518.00,0.0166
3517.00,0.0165
3516.00,0.0162
3515.00,0.0158
3514.00,0.0152
3513.00,0.0146
3512.00,0.0140
3511.00,0.0133
3510.00,0.0126
3509.00,0.0119
3508.00,0.0113
3507.00,0.0107
3506.00,0.0103
3505.00,0.0098
3504.00,0.0094
3503.00,0.0091
3502.00,0.0088
3501.00,0.0086
3500.00,0.0084
3499.00,0.0082
3498.00,0.0081
3497.00,0.0080
3496.00,0.0079
3495.00,0.0079
3494.00,0.0079
3493.00,0.0079
3492.00,0.0079
3491.00,0.0080
3490.00,0.0080
3489.00,0.0080
3488.00,0.0080
3487.00,0.0081
3486.00,0.0082
3485.00,0.0082
3484.00,0.0083
3483.00,0.0084
3482.00,0.0085
3481.00,0.0087
3480.00,0.0088
3479.00,0.0090
3478.00,0.0091
3477.00,0.0093
3476.00,0.0094
3475.00,0.0096
3474.00,0.0097
3473.00,0.0098
3472.00,0.0100
3471.00,0.0102
3470.00,0.0104
3469.00,0.0106
3468.00,0.0108
3467.00,0.0110
3466.00,0.0112
3465.00,0.0114
3464.00,0.0116
3463.00,0.0118
3462.00,0.0120
3461.00,0.0122
3460.00,0.0125
3459.00,0.0127
3458.00,0.0129
3457.00,0.0131
3456.00,0.0134
3455.00,0.0136
3454.00,0.0138
3453.00,0.0140
3452.00,0.0143
3451.00,0.0145
3450.00,0.0148
3449.00,0.0150
3448.00,0.0152
3447.00,0.0154
3446.00,0.0156
3445.00,0.0158
3444.00,0.0160
3443.00,0.0162
3442.00,0.0164
3441.00,0.0167
3440.00,0.0169
3439.00,0.0171
3438.00,0.0173
3437.00,0.0175
3436.00,0.0177
3435.00,0.0179
3434.00,0.0181
3433.00,0.0182
3432.00,0.0184
3431.00,0.0186
3430.00,0.0188
3429.00,0.0190
3428.00,0.0192
3427.00,0.0194
3426.00,0.0196
3425.00,0.0199
3424.00,0.0201
3423.00,0.0204
3422.00,0.0206
3421.00,0.0209
3420.00,0.0212
3419.00,0.0215
3418.00,0.0218
3417.00,0.0221
3416.00,0.0224
3415.00,0.0228
3414.00,0.0231
3413.00,0.0235
3412.00,0.0238
3411.00,0.0241
3410.00,0.0243
3409.00,0.0245
3408.00,0.0246
3407.00,0.0247
3406.00,0.0247
3405.00,0.0246
3404.00,0.0245
3403.00,0.0243
3402.00,0.0240
3401.00,0.0236
3400.00,0.0231
3399.00,0.0226
3398.00,0.0220
3397.00,0.0214
3396.00,0.0207
3395.00,0.0201
3394.00,0.0194
3393.00,0.0188
3392.00,0.0181
3391.00,0.0175
3390.00,0.0169
3389.00,0.0163
3388.00,0.0158
3387.00,0.0152
3386.00,0.0147
3385.00,0.0143
3384.00,0.0139
3383.00,0.0135
3382.00,0.0131
3381.00,0.0128
3380.00,0.0124
3379.00,0.0121
3378.00,0.0118
3377.00,0.0115
3376.00,0.0112
3375.00,0.0109
3374.00,0.0107
3373.00,0.0104
3372.00,0.0102
3371.00,0.0100
3370.00,0.0098
3369.00,0.0096
3368.00,0.0094
3367.00,0.0092
3366.00,0.0090
3365.00,0.0088
3364.00,0.0086
3363.00,0.0084
3362.00,0.0082
3361.00,0.0081
3360.00,0.0079
3359.00,0.0078
3358.00,0.0076
3357.00,0.0075
3356.00,0.0074
3355.00,0.0072
3354.00,0.0071
3353.00,0.0069
3352.00,0.0068
3351.00,0.0067
3350.00,0.0066
3349.00,0.0065
3348.00,0.0064
3347.00,0.0063
3346.00,0.0062
3345.00,0.0061
3344.00,0.0061
3343.00,0.0060
3342.00,0.0059
3341.00,0.0058
3340.00,0.0057
3339.00,0.0056
3338.00,0.0055
3337.00,0.0054
3336.00,0.0053
3335.00,0.0053
3334.00,0.0052
3333.00,0.0052
3332.00,0.0051
3331.00,0.0051
3330.00,0.0050
3329.00,0.0050
3328.00,0.0049
3327.00,0.0048
3326.00,0.0048
3325.00,0.0047
3324.00,0.0046
3323.00,0.0046
3322.00,0.0045
3321.00,0.0045
3320.00,0.0044
3319.00,0.0044
3318.00,0.0044
3317.00,0.0043
3316.00,0.0043
3315.00,0.0043
3314.00,0.0042
3313.00,0.0042
3312.00,0.0042
3311.00,0.0041
3310.00,0.0041
3309.00,0.0040
3308.00,0.0040
3307.00,0.0040
3306.00,0.0039
3305.00,0.0039
3304.00,0.0038
3303.00,0.0038
3302.00,0.0037
3301.00,0.0037
3300.00,0.0036
3299.00,0.0036
3298.00,0.0036
3297.00,0.0036
3296.00,0.0035
3295.00,0.0035
3294.00,0.0035
3293.00,0.0034
3292.00,0.0034
3291.00,0.0034
3290.00,0.0034
3289.00,0.0034
3288.00,0.0034
3287.00,0.0033
3286.00,0.0033
3285.00,0.0033
3284.00,0.0032
3283.00,0.0032
3282.00,0.0032
3281.00,0.0032
3280.00,0.0031
3279.00,0.0031
3278.00,0.0031
3277.00,0.0031
3276.00,0.0031
3275.00,0.0030
3274.00,0.0030
3273.00,0.0029
3272.00,0.0029
3271.00,0.0029
3270.00,0.0029
3269.00,0.0029
3268.00,0.0029
3267.00,0.0029
3266.00,0.0029
3265.00,0.0029
3264.00,0.0029
3263.00,0.0029
3262.00,0.0029
3261.00,0.0029
3260.00,0.0029
3259.00,0.0029
3258.00,0.0029
3257.00,0.0028
3256.00,0.0028
3255.00,0.0028
3254.00,0.0028
3253.00,0.0028
3252.00,0.0028
3251.00,0.0028
3250.00,0.0028
3249.00,0.0027
3248.00,0.0027
3247.00,0.0027
3246.00,0.0027
3245.00,0.0027
3244.00,0.0027
3243.00,0.0027
3242.00,0.0027
3241.00,0.0027
3240.00,0.0027
3239.00,0.0027
3238.00,0.0027
3237.00,0.0026
3236.00,0.0026
3235.00,0.0025
3234.00,0.0025
3233.00,0.0025
3232.00,0.0025
3231.00,0.0025
3230.00,0.0025
3229.00,0.0025
3228.00,0.0025
3227.00,0.0025
3226.00,0.0025
3225.00,0.0025
3224.00,0.0025
3223.00,0.0025
3222.00,0.0025
3221.00,0.0024
3220.00,0.0024
3219.00,0.0024
3218.00,0.0024
3217.00,0.0024
3216.00,0.0024
3215.00,0.0025
3214.00,0.0025
3213.00,0.0025
3212.00,0.0025
3211.00,0.0024
3210.00,0.0024
3209.00,0.0024
3208.00,0.0024
3207.00,0.0024
3206.00,0.0024
3205.00,0.0024
3204.00,0.0024
3203.00,0.0024
3202.00,0.0024
3201.00,0.0024
3200.00,0.0024
3199.00,0.0024
3198.00,0.0023
3197.00,0.0024
3196.00,0.0024
3195.00,0.0024
3194.00,0.0024
3193.00,0.0024
3192.00,0.0024
3191.00,0.0024
3190.00,0.0024
3189.00,0.0023
3188.00,0.0023
3187.00,0.0023
3186.00,0.0023
3185.00,0.0023
3184.00,0.0023
3183.00,0.0023
3182.00,0.0023
3181.00,0.0023
3180.00,0.0023
3179.00,0.0024
3178.00,0.0024
3177.00,0.0024
3176.00,0.0024
3175.00,0.0024
3174.00,0.0024
3173.00,0.0024
3172.00,0.0024
3171.00,0.0025
3170.00,0.0025
3169.00,0.0025
3168.00,0.0025
3167.00,0.0025
3166.00,0.0024
3165.00,0.0024
3164.00,0.0024
3163.00,0.0024
3162.00,0.0024
3161.00,0.0024
3160.00,0.0024
3159.00,0.0024
3158.00,0.0024
3157.00,0.0024
3156.00,0.0024
3155.00,0.0024
3154.00,0.0023
3153.00,0.0023
3152.00,0.0023
3151.00,0.0023
3150.00,0.0023
3149.00,0.0023
3148.00,0.0024
3147.00,0.0024
3146.00,0.0024
3145.00,0.0024
3144.00,0.0023
3143.00,0.0023
3142.00,0.0023
3141.00,0.0023
3140.00,0.0023
3139.00,0.0023
3138.00,0.0023
3137.00,0.0023
3136.00,0.0023
3135.00,0.0023
3134.00,0.0023
3133.00,0.0023
3132.00,0.0023
3131.00,0.0023
3130.00,0.0023
3129.00,0.0023
3128.00,0.0023
3127.00,0.0023
3126.00,0.0022
3125.00,0.0022
3124.00,0.0022
3123.00,0.0022
3122.00,0.0022
3121.00,0.0022
3120.00,0.0022
3119.00,0.0022
3118.00,0.0022
3117.00,0.0022
3116.00,0.0022
3115.00,0.0022
3114.00,0.0022
3113.00,0.0022
3112.00,0.0022
3111.00,0.0022
3110.00,0.0022
3109.00,0.0022
3108.00,0.0022
3107.00,0.0022
3106.00,0.0022
3105.00,0.0022
3104.00,0.0023
3103.00,0.0023
3102.00,0.0023
3101.00,0.0023
3100.00,0.0023
3099.00,0.0023
3098.00,0.0023
3097.00,0.0023
3096.00,0.0023
3095.00,0.0023
3094.00,0.0023
3093.00,0.0023
3092.00,0.0024
3091.00,0.0024
3090.00,0.0024
3089.00,0.0025
3088.00,0.0025
3087.00,0.0025
3086.00,0.0026
3085.00,0.0027
3084.00,0.0028
3083.00,0.0030
3082.00,0.0032
3081.00,0.0034
3080.00,0.0037
3079.00,0.0041
3078.00,0.0046
3077.00,0.0050
3076.00,0.0054
3075.00,0.0056
3074.00,0.0056
3073.00,0.0054
3072.00,0.0051
3071.00,0.0048
3070.00,0.0044
3069.00,0.0040
3068.00,0.0037
3067.00,0.0034
3066.00,0.0032
3065.00,0.0031
3064.00,0.0030
3063.00,0.0029
3062.00,0.0029
3061.00,0.0028
3060.00,0.0027
3059.00,0.0027
3058.00,0.0026
3057.00,0.0026
3056.00,0.0026
3055.00,0.0026
3054.00,0.0026
3053.00,0.0026
3052.00,0.0026
3051.00,0.0026
3050.00,0.0026
3049.00,0.0027
3048.00,0.0027
3047.00,0.0028
3046.00,0.0028
3045.00,0.0028
3044.00,0.0029
3043.00,0.0029
3042.00,0.0030
3041.00,0.0031
3040.00,0.0031
3039.00,0.0031
3038.00,0.0032
3037.00,0.0032
3036.00,0.0033
3035.00,0.0033
3034.00,0.0034
3033.00,0.0034
3032.00,0.0034
3031.00,0.0034
3030.00,0.0034
3029.00,0.0034
3028.00,0.0033
3027.00,0.0032
3026.00,0.0032
3025.00,0.0031
3024.00,0.0030
3023.00,0.0030
3022.00,0.0030
3021.00,0.0030
3020.00,0.0030
3019.00,0.0030
3018.00,0.0030
3017.00,0.0030
3016.00,0.0030
3015.00,0.0030
3014.00,0.0030
3013.00,0.0030
3012.00,0.0031
3011.00,0.0031
3010.00,0.0032
3009.00,0.0032
3008.00,0.0033
3007.00,0.0034
3006.00,0.0034
3005.00,0.0035
3004.00,0.0035
3003.00,0.0035
3002.00,0.0036
3001.00,0.0036
3000.00,0.0037
2999.00,0.0038
2998.00,0.0039
2997.00,0.0039
2996.00,0.0040
2995.00,0.0041
2994.00,0.0042
2993.00,0.0043
2992.00,0.0044
2991.00,0.0046
2990.00,0.0047
2989.00,0.0049
2988.00,0.0050
2987.00,0.0051
2986.00,0.0052
2985.00,0.0053
2984.00,0.0054
2983.00,0.0056
2982.00,0.0058
2981.00,0.0061
2980.00,0.0064
2979.00,0.0067
2978.00,0.0070
2977.00,0.0075
2976.00,0.0080
2975.00,0.0086
2974.00,0.0093
2973.00,0.0101
2972.00,0.0109
2971.00,0.0117
2970.00,0.0125
2969.00,0.0132
2968.00,0.0139
2967.00,0.0144
2966.00,0.0148
2965.00,0.0150
2964.00,0.0151
2963.00,0.0150
2962.00,0.0149
2961.00,0.0147
2960.00,0.0144
2959.00,0.0141
2958.00,0.0137
2957.00,0.0133
2956.00,0.0129
2955.00,0.0125
2954.00,0.0121
2953.00,0.0118
2952.00,0.0116
2951.00,0.0114
2950.00,0.0114
2949.00,0.0115
2948.00,0.0118
2947.00,0.0122
2946.00,0.0128
2945.00,0.0134
2944.00,0.0141
2943.00,0.0147
2942.00,0.0153
2941.00,0.0159
2940.00,0.0164
2939.00,0.0170
2938.00,0.0175
2937.00,0.0181
2936.00,0.0188
2935.00,0.0195
2934.00,0.0203
2933.00,0.0210
2932.00,0.0218
2931.00,0.0226
2930.00,0.0233
2929.00,0.0240
2928.00,0.0247
2927.00,0.0252
2926.00,0.0257
2925.00,0.0260
2924.00,0.0262
2923.00,0.0261
2922.00,0.0260
2921.00,0.0259
2920.00,0.0257
2919.00,0.0255
2918.00,0.0253
2917.00,0.0251
2916.00,0.0249
2915.00,0.0247
2914.00,0.0243
2913.00,0.0239
2912.00,0.0233
2911.00,0.0227
2910.00,0.0220
2909.00,0.0213
2908.00,0.0206
2907.00,0.0199
2906.00,0.0192
2905.00,0.0186
2904.00,0.0180
2903.00,0.0175
2902.00,0.0171
2901.00,0.0167
2900.00,0.0163
2899.00,0.0159
2898.00,0.0155
2897.00,0.0151
2896.00,0.0146
2895.00,0.0141
2894.00,0.0137
2893.00,0.0133
2892.00,0.0130
2891.00,0.0126
2890.00,0.0124
2889.00,0.0122
2888.00,0.0120
2887.00,0.0119
2886.00,0.0118
2885.00,0.0117
2884.00,0.0117
2883.00,0.0117
2882.00,0.0117
2881.00,0.0117
2880.00,0.0118
2879.00,0.0119
2878.00,0.0120
2877.00,0.0122
2876.00,0.0124
2875.00,0.0126
2874.00,0.0128
2873.00,0.0130
2872.00,0.0131
2871.00,0.0132
2870.00,0.0131
2869.00,0.0130
2868.00,0.0129
2867.00,0.0128
2866.00,0.0128
2865.00,0.0129
2864.00,0.0132
2863.00,0.0136
2862.00,0.0143
2861.00,0.0152
2860.00,0.0162
2859.00,0.0174
2858.00,0.0185
2857.00,0.0195
2856.00,0.0201
2855.00,0.0202
2854.00,0.0199
2853.00,0.0192
2852.00,0.0181
2851.00,0.0169
2850.00,0.0157
2849.00,0.0145
2848.00,0.0133
2847.00,0.0123
2846.00,0.0113
2845.00,0.0105
2844.00,0.0098
2843.00,0.0092
2842.00,0.0087
2841.00,0.0083
2840.00,0.0080
2839.00,0.0078
2838.00,0.0077
2837.00,0.0078
2836.00,0.0079
2835.00,0.0082
2834.00,0.0087
2833.00,0.0093
2832.00,0.0100
2831.00,0.0106
2830.00,0.0112
2829.00,0.0115
2828.00,0.0114
2827.00,0.0110
2826.00,0.0102
2825.00,0.0094
2824.00,0.0085
2823.00,0.0078
2822.00,0.0071
2821.00,0.0066
2820.00,0.0062
2819.00,0.0058
2818.00,0.0055
2817.00,0.0053
2816.00,0.0051
2815.00,0.0050
2814.00,0.0048
2813.00,0.0047
2812.00,0.0046
2811.00,0.0045
2810.00,0.0044
2809.00,0.0044
2808.00,0.0043
2807.00,0.0042
2806.00,0.0042
2805.00,0.0041
2804.00,0.0041
2803.00,0.0040
2802.00,0.0040
2801.00,0.0039
2800.00,0.0039
2799.00,0.0038
2798.00,0.0038
2797.00,0.0037
2796.00,0.0037
2795.00,0.0036
2794.00,0.0036
2793.00,0.0035
2792.00,0.0035
2791.00,0.0035
2790.00,0.0035
2789.00,0.0034
2788.00,0.0034
2787.00,0.0033
2786.00,0.0033
2785.00,0.0033
2784.00,0.0033
2783.00,0.0033
2782.00,0.0032
2781.00,0.0032
2780.00,0.0032
2779.00,0.0031
2778.00,0.0031
2777.00,0.0030
2776.00,0.0030
2775.00,0.0030
2774.00,0.0030
2773.00,0.0030
2772.00,0.0030
2771.00,0.0030
2770.00,0.0030
2769.00,0.0030
2768.00,0.0030
2767.00,0.0030
2766.00,0.0029
2765.00,0.0029
2764.00,0.0029
2763.00,0.0029
2762.00,0.0029
2761.00,0.0028
2760.00,0.0029
2759.00,0.0029
2758.00,0.0029
2757.00,0.0029
2756.00,0.0029
2755.00,0.0029
2754.00,0.0028
2753.00,0.0028
2752.00,0.0028
2751.00,0.0028
2750.00,0.0028
2749.00,0.0028
2748.00,0.0028
2747.00,0.0028
2746.00,0.0028
2745.00,0.0029
2744.00,0.0029
2743.00,0.0029
2742.00,0.0029
2741.00,0.0029
2740.00,0.0029
2739.00,0.0030
2738.00,0.0030
2737.00,0.0030
2736.00,0.0031
2735.00,0.0031
2734.00,0.0032
2733.00,0.0032
2732.00,0.0033
2731.00,0.0033
2730.00,0.0034
2729.00,0.0034
2728.00,0.0034
2727.00,0.0034
2726.00,0.0034
2725.00,0.0033
2724.00,0.0033
2723.00,0.0032
2722.00,0.0031
2721.00,0.0031
2720.00,0.0030
2719.00,0.0030
2718.00,0.0030
2717.00,0.0029
2716.00,0.0029
2715.00,0.0029
2714.00,0.0028
2713.00,0.0028
2712.00,0.0028
2711.00,0.0028
2710.00,0.0028
2709.00,0.0027
2708.00,0.0027
2707.00,0.0027
2706.00,0.0027
2705.00,0.0027
2704.00,0.0027
2703.00,0.0026
2702.00,0.0026
2701.00,0.0026
2700.00,0.0026
2699.00,0.0026
2698.00,0.0026
2697.00,0.0026
2696.00,0.0026
2695.00,0.0026
2694.00,0.0026
2693.00,0.0026
2692.00,0.0026
2691.00,0.0026
2690.00,0.0026
2689.00,0.0026
2688.00,0.0026
2687.00,0.0026
2686.00,0.0026
2685.00,0.0027
2684.00,0.0027
2683.00,0.0027
2682.00,0.0027
2681.00,0.0027
2680.00,0.0027
2679.00,0.0027
2678.00,0.0027
2677.00,0.0028
2676.00,0.0028
2675.00,0.0029
2674.00,0.0029
2673.00,0.0029
2672.00,0.0029
2671.00,0.0029
2670.00,0.0029
2669.00,0.0029
2668.00,0.0029
2667.00,0.0029
2666.00,0.0030
2665.00,0.0030
2664.00,0.0030
2663.00,0.0031
2662.00,0.0031
2661.00,0.0032
2660.00,0.0032
2659.00,0.0032
2658.00,0.0032
2657.00,0.0032
2656.00,0.0032
2655.00,0.0032
2654.00,0.0032
2653.00,0.0032
2652.00,0.0032
2651.00,0.0032
2650.00,0.0032
2649.00,0.0032
2648.00,0.0032
2647.00,0.0032
2646.00,0.0032
2645.00,0.0032
2644.00,0.0032
2643.00,0.0032
2642.00,0.0032
2641.00,0.0032
2640.00,0.0032
2639.00,0.0031
2638.00,0.0031
2637.00,0.0031
2636.00,0.0031
2635.00,0.0031
2634.00,0.0031
2633.00,0.0031
2632.00,0.0031
2631.00,0.0031
2630.00,0.0031
2629.00,0.0030
2628.00,0.0030
2627.00,0.0030
2626.00,0.0030
2625.00,0.0031
2624.00,0.0030
2623.00,0.0030
2622.00,0.0030
2621.00,0.0030
2620.00,0.0030
2619.00,0.0030
2618.00,0.0030
2617.00,0.0030
2616.00,0.0030
2615.00,0.0030
2614.00,0.0030
2613.00,0.0030
2612.00,0.0030
2611.00,0.0030
2610.00,0.0030
2609.00,0.0030
2608.00,0.0030
2607.00,0.0030
2606.00,0.0029
2605.00,0.0029
2604.00,0.0029
2603.00,0.0029
2602.00,0.0028
2601.00,0.0028
2600.00,0.0029
2599.00,0.0029
2598.00,0.0029
2597.00,0.0029
2596.00,0.0029
2595.00,0.0029
2594.00,0.0028
2593.00,0.0028
2592.00,0.0028
2591.00,0.0028
2590.00,0.0028
2589.00,0.0028
2588.00,0.0029
2587.00,0.0029
2586.00,0.0028
2585.00,0.0028
2584.00,0.0028
2583.00,0.0028
2582.00,0.0027
2581.00,0.0027
2580.00,0.0027
2579.00,0.0027
2578.00,0.0027
2577.00,0.0027
2576.00,0.0027
2575.00,0.0027
2574.00,0.0027
2573.00,0.0027
2572.00,0.0027
2571.00,0.0027
2570.00,0.0026
2569.00,0.0026
2568.00,0.0026
2567.00,0.0026
2566.00,0.0026
2565.00,0.0026
2564.00,0.0027
2563.00,0.0027
2562.00,0.0026
2561.00,0.0026
2560.00,0.0026
2559.00,0.0026
2558.00,0.0026
2557.00,0.0026
2556.00,0.0026
2555.00,0.0026
2554.00,0.0026
2553.00,0.0026
2552.00,0.0026
2551.00,0.0026
2550.00,0.0026
2549.00,0.0026
2548.00,0.0026
2547.00,0.0026
2546.00,0.0025
2545.00,0.0025
2544.00,0.0025
2543.00,0.0025
2542.00,0.0025
2541.00,0.0025
2540.00,0.0025
2539.00,0.0025
2538.00,0.0025
2537.00,0.0025
2536.00,0.0025
2535.00,0.0025
2534.00,0.0024
2533.00,0.0024
2532.00,0.0024
2531.00,0.0024
2530.00,0.0024
2529.00,0.0024
2528.00,0.0024
2527.00,0.0024
2526.00,0.0025
2525.00,0.0025
2524.00,0.0025
2523.00,0.0025
2522.00,0.0025
2521.00,0.0025
2520.00,0.0025
2519.00,0.0025
2518.00,0.0025
2517.00,0.0025
2516.00,0.0025
2515.00,0.0024
2514.00,0.0024
2513.00,0.0024
2512.00,0.0024
2511.00,0.0025
2510.00,0.0025
2509.00,0.0024
2508.00,0.0024
2507.00,0.0024
2506.00,0.0024
2505.00,0.0025
2504.00,0.0025
2503.00,0.0025
2502.00,0.0025
2501.00,0.0025
2500.00,0.0025
2499.00,0.0025
2498.00,0.0025
2497.00,0.0024
2496.00,0.0024
2495.00,0.0024
2494.00,0.0024
2493.00,0.0024
2492.00,0.0024
2491.00,0.0024
2490.00,0.0024
2489.00,0.0024
2488.00,0.0024
2487.00,0.0024
2486.00,0.0024
2485.00,0.0025
2484.00,0.0025
2483.00,0.0025
2482.00,0.0025
2481.00,0.0025
2480.00,0.0025
2479.00,0.0025
2478.00,0.0024
2477.00,0.0024
2476.00,0.0024
2475.00,0.0024
2474.00,0.0025
2473.00,0.0025
2472.00,0.0025
2471.00,0.0024
2470.00,0.0024
2469.00,0.0024
2468.00,0.0024
2467.00,0.0024
2466.00,0.0025
2465.00,0.0025
2464.00,0.0025
2463.00,0.0025
2462.00,0.0025
2461.00,0.0025
2460.00,0.0026
2459.00,0.0026
2458.00,0.0026
2457.00,0.0026
2456.00,0.0027
2455.00,0.0027
2454.00,0.0026
2453.00,0.0026
2452.00,0.0026
2451.00,0.0026
2450.00,0.0026
2449.00,0.0026
2448.00,0.0026
2447.00,0.0025
2446.00,0.0025
2445.00,0.0025
2444.00,0.0025
2443.00,0.0024
2442.00,0.0024
2441.00,0.0024
2440.00,0.0024
2439.00,0.0024
2438.00,0.0024
2437.00,0.0023
2436.00,0.0023
2435.00,0.0023
2434.00,0.0022
2433.00,0.0022
2432.00,0.0022
2431.00,0.0021
2430.00,0.0021
2429.00,0.0021
2428.00,0.0022
2427.00,0.0022
2426.00,0.0022
2425.00,0.0022
2424.00,0.0022
2423.00,0.0021
2422.00,0.0021
2421.00,0.0020
2420.00,0.0020
2419.00,0.0020
2418.00,0.0020
2417.00,0.0021
2416.00,0.0021
2415.00,0.0021
2414.00,0.0021
2413.00,0.0021
2412.00,0.0021
2411.00,0.0020
2410.00,0.0020
2409.00,0.0020
2408.00,0.0019
2407.00,0.0019
2406.00,0.0019
2405.00,0.0019
2404.00,0.0019
2403.00,0.0019
2402.00,0.0019
2401.00,0.0019
2400.00,0.0018
2399.00,0.0018
2398.00,0.0018
2397.00,0.0018
2396.00,0.0018
2395.00,0.0018
2394.00,0.0018
2393.00,0.0018
2392.00,0.0018
2391.00,0.0018
2390.00,0.0018
2389.00,0.0018
2388.00,0.0018
2387.00,0.0018
2386.00,0.0017
2385.00,0.0017
2384.00,0.0017
2383.00,0.0017
2382.00,0.0016
2381.00,0.0016
2380.00,0.0016
2379.00,0.0017
2378.00,0.0017
2377.00,0.0017
2376.00,0.0017
2375.00,0.0017
2374.00,0.0017
2373.00,0.0017
2372.00,0.0017
2371.00,0.0016
2370.00,0.0016
2369.00,0.0016
2368.00,0.0017
2367.00,0.0017
2366.00,0.0017
2365.00,0.0017
2364.00,0.0018
2363.00,0.0018
2362.00,0.0019
2361.00,0.0019
2360.00,0.0019
2359.00,0.0019
2358.00,0.0018
2357.00,0.0018
2356.00,0.0018
2355.00,0.0018
2354.00,0.0018
2353.00,0.0018
2352.00,0.0019
2351.00,0.0019
2350.00,0.0018
2349.00,0.0019
2348.00,0.0019
2347.00,0.0021
2346.00,0.0022
2345.00,0.0023
2344.00,0.0023
2343.00,0.0022
2342.00,0.0021
2341.00,0.0021
2340.00,0.0021
2339.00,0.0021
2338.00,0.0021
2337.00,0.0021
2336.00,0.0020
2335.00,0.0020
2334.00,0.0020
2333.00,0.0020
2332.00,0.0020
2331.00,0.0020
2330.00,0.0020
2329.00,0.0021
2328.00,0.0024
2327.00,0.0027
2326.00,0.0030
2325.00,0.0031
2324.00,0.0031
2323.00,0.0029
2322.00,0.0028
2321.00,0.0026
2320.00,0.0025
2319.00,0.0024
2318.00,0.0024
2317.00,0.0023
2316.00,0.0023
2315.00,0.0023
2314.00,0.0023
2313.00,0.0022
2312.00,0.0022
2311.00,0.0022
2310.00,0.0021
2309.00,0.0021
2308.00,0.0021
2307.00,0.0021
2306.00,0.0022
2305.00,0.0022
2304.00,0.0022
2303.00,0.0023
2302.00,0.0023
2301.00,0.0023
2300.00,0.0024
2299.00,0.0024
2298.00,0.0025
2297.00,0.0025
2296.00,0.0026
2295.00,0.0026
2294.00,0.0027
2293.00,0.0028
2292.00,0.0029
2291.00,0.0029
2290.00,0.0030
2289.00,0.0030
2288.00,0.0030
2287.00,0.0030
2286.00,0.0030
2285.00,0.0030
2284.00,0.0030
2283.00,0.0029
2282.00,0.0028
2281.00,0.0028
2280.00,0.0027
2279.00,0.0027
2278.00,0.0027
2277.00,0.0027
2276.00,0.0026
2275.00,0.0025
2274.00,0.0025
2273.00,0.0025
2272.00,0.0025
2271.00,0.0025
2270.00,0.0025
2269.00,0.0025
2268.00,0.0024
2267.00,0.0024
2266.00,0.0023
2265.00,0.0023
2264.00,0.0023
2263.00,0.0023
2262.00,0.0023
2261.00,0.0023
2260.00,0.0023
2259.00,0.0023
2258.00,0.0023
2257.00,0.0023
2256.00,0.0022
2255.00,0.0021
2254.00,0.0021
2253.00,0.0021
2252.00,0.0021
2251.00,0.0022
2250.00,0.0022
2249.00,0.0023
2248.00,0.0023
2247.00,0.0023
2246.00,0.0024
2245.00,0.0024
2244.00,0.0024
2243.00,0.0024
2242.00,0.0024
2241.00,0.0024
2240.00,0.0025
2239.00,0.0025
2238.00,0.0025
2237.00,0.0024
2236.00,0.0024
2235.00,0.0023
2234.00,0.0022
2233.00,0.0022
2232.00,0.0022
2231.00,0.0022
2230.00,0.0022
2229.00,0.0022
2228.00,0.0021
2227.00,0.0021
2226.00,0.0020
2225.00,0.0020
2224.00,0.0020
2223.00,0.0020
2222.00,0.0020
2221.00,0.0021
2220.00,0.0021
2219.00,0.0022
2218.00,0.0022
2217.00,0.0022
2216.00,0.0023
2215.00,0.0023
2214.00,0.0024
2213.00,0.0024
2212.00,0.0024
2211.00,0.0024
2210.00,0.0024
2209.00,0.0024
2208.00,0.0023
2207.00,0.0022
2206.00,0.0022
2205.00,0.0022
2204.00,0.0022
2203.00,0.0022
2202.00,0.0022
2201.00,0.0021
2200.00,0.0021
2199.00,0.0021
2198.00,0.0021
2197.00,0.0022
2196.00,0.0022
2195.00,0.0022
2194.00,0.0022
2193.00,0.0022
2192.00,0.0022
2191.00,0.0023
2190.00,0.0024
2189.00,0.0025
2188.00,0.0025
2187.00,0.0025
2186.00,0.0025
2185.00,0.0025
2184.00,0.0023
2183.00,0.0022
2182.00,0.0020
2181.00,0.0020
2180.00,0.0021
2179.00,0.0021
2178.00,0.0021
2177.00,0.0019
2176.00,0.0018
2175.00,0.0018
2174.00,0.0018
2173.00,0.0020
2172.00,0.0021
2171.00,0.0023
2170.00,0.0025
2169.00,0.0028
2168.00,0.0030
2167.00,0.0031
2166.00,0.0032
2165.00,0.0033
2164.00,0.0035
2163.00,0.0035
2162.00,0.0030
2161.00,0.0021
2160.00,0.0008
2159.00,-0.0004
2158.00,-0.0010
2157.00,-0.0011
2156.00,-0.0008
2155.00,-0.0005
2154.00,-0.0002
2153.00,0.0001
2152.00,0.0002
2151.00,0.0003
2150.00,0.0004
2149.00,0.0004
2148.00,0.0004
2147.00,0.0004
2146.00,0.0002
2145.00,0.0001
2144.00,-0.0000
2143.00,-0.0000
2142.00,0.0001
2141.00,0.0002
2140.00,0.0003
2139.00,0.0003
2138.00,0.0002
2137.00,0.0000
2136.00,-0.0001
2135.00,-0.0002
2134.00,-0.0002
2133.00,-0.0001
2132.00,0.0001
2131.00,0.0001
2130.00,0.0002
2129.00,0.0004
2128.00,0.0005
2127.00,0.0006
2126.00,0.0007
2125.00,0.0008
2124.00,0.0010
2123.00,0.0011
2122.00,0.0011
2121.00,0.0012
2120.00,0.0012
2119.00,0.0013
2118.00,0.0014
2117.00,0.0015
2116.00,0.0016
2115.00,0.0016
2114.00,0.0016
2113.00,0.0015
2112.00,0.0015
2111.00,0.0015
2110.00,0.0015
2109.00,0.0015
2108.00,0.0016
2107.00,0.0016
2106.00,0.0016
2105.00,0.0016
2104.00,0.0016
2103.00,0.0015
2102.00,0.0015
2101.00,0.0015
2100.00,0.0015
2099.00,0.0015
2098.00,0.0014
2097.00,0.0013
2096.00,0.0012
2095.00,0.0011
2094.00,0.0011
2093.00,0.0012
2092.00,0.0013
2091.00,0.0014
2090.00,0.0015
2089.00,0.0016
2088.00,0.0017
2087.00,0.0018
2086.00,0.0018
2085.00,0.0017
2084.00,0.0017
2083.00,0.0017
2082.00,0.0018
2081.00,0.0018
2080.00,0.0019
2079.00,0.0019
2078.00,0.0019
2077.00,0.0019
2076.00,0.0019
2075.00,0.0019
2074.00,0.0018
2073.00,0.0017
2072.00,0.0016
2071.00,0.0016
2070.00,0.0017
2069.00,0.0016
2068.00,0.0016
2067.00,0.0015
2066.00,0.0014
2065.00,0.0013
2064.00,0.0013
2063.00,0.0013
2062.00,0.0014
2061.00,0.0015
2060.00,0.0015
2059.00,0.0016
2058.00,0.0016
2057.00,0.0016
2056.00,0.0016
2055.00,0.0016
2054.00,0.0018
2053.00,0.0022
2052.00,0.0025
2051.00,0.0025
2050.00,0.0023
2049.00,0.0020
2048.00,0.0017
2047.00,0.0016
2046.00,0.0016
2045.00,0.0015
2044.00,0.0015
2043.00,0.0016
2042.00,0.0016
2041.00,0.0016
2040.00,0.0017
2039.00,0.0017
2038.00,0.0017
2037.00,0.0016
2036.00,0.0015
2035.00,0.0013
2034.00,0.0011
2033.00,0.0010
2032.00,0.0009
2031.00,0.0010
2030.00,0.0010
2029.00,0.0010
2028.00,0.0010
2027.00,0.0009
2026.00,0.0010
2025.00,0.0010
2024.00,0.0011
2023.00,0.0012
2022.00,0.0012
2021.00,0.0010
2020.00,0.0009
2019.00,0.0008
2018.00,0.0008
2017.00,0.0009
2016.00,0.0010
2015.00,0.0010
2014.00,0.0010
2013.00,0.0010
2012.00,0.0009
2011.00,0.0009
2010.00,0.0007
2009.00,0.0005
2008.00,0.0003
2007.00,0.0002
2006.00,0.0002
2005.00,0.0003
2004.00,0.0004
2003.00,0.0004
2002.00,0.0003
2001.00,0.0004
2000.00,0.0005
1999.00,0.0007
1998.00,0.0009
1997.00,0.0010
1996.00,0.0011
1995.00,0.0013
1994.00,0.0014
1993.00,0.0015
1992.00,0.0016
1991.00,0.0016
1990.00,0.0016
1989.00,0.0016
1988.00,0.0016
1987.00,0.0017
1986.00,0.0018
1985.00,0.0020
1984.00,0.0022
1983.00,0.0025
1982.00,0.0028
1981.00,0.0028
1980.00,0.0025
1979.00,0.0020
1978.00,0.0013
1977.00,0.0008
1976.00,0.0006
1975.00,0.0005
1974.00,0.0005
1973.00,0.0005
1972.00,0.0004
1971.00,0.0004
1970.00,0.0004
1969.00,0.0005
1968.00,0.0005
1967.00,0.0006
1966.00,0.0007
1965.00,0.0008
1964.00,0.0008
1963.00,0.0007
1962.00,0.0005
1961.00,0.0003
1960.00,0.0002
1959.00,0.0003
1958.00,0.0004
1957.00,0.0005
1956.00,0.0005
1955.00,0.0006
1954.00,0.0007
1953.00,0.0008
1952.00,0.0008
1951.00,0.0009
1950.00,0.0009
1949.00,0.0008
1948.00,0.0008
1947.00,0.0008
1946.00,0.0008
1945.00,0.0008
1944.00,0.0008
1943.00,0.0008
1942.00,0.0008
1941.00,0.0008
1940.00,0.0008
1939.00,0.0008
1938.00,0.0008
1937.00,0.0008
1936.00,0.0008
1935.00,0.0008
1934.00,0.0008
1933.00,0.0008
1932.00,0.0008
1931.00,0.0008
1930.00,0.0008
1929.00,0.0008
1928.00,0.0008
1927.00,0.0009
1926.00,0.0009
1925.00,0.0010
1924.00,0.0010
1923.00,0.0011
1922.00,0.0012
1921.00,0.0012
1920.00,0.0012
1919.00,0.0012
1918.00,0.0012
1917.00,0.0012
1916.00,0.0011
1915.00,0.0011
1914.00,0.0011
1913.00,0.0011
1912.00,0.0011
1911.00,0.0011
1910.00,0.0011
1909.00,0.0011
1908.00,0.0012
1907.00,0.0012
1906.00,0.0012
1905.00,0.0012
1904.00,0.0012
1903.00,0.0012
1902.00,0.0011
1901.00,0.0011
1900.00,0.0012
1899.00,0.0012
1898.00,0.0012
1897.00,0.0012
1896.00,0.0012
1895.00,0.0012
1894.00,0.0012
1893.00,0.0012
1892.00,0.0012
1891.00,0.0012
1890.00,0.0012
1889.00,0.0013
1888.00,0.0013
1887.00,0.0013
1886.00,0.0013
1885.00,0.0013
1884.00,0.0013
1883.00,0.0013
1882.00,0.0013
1881.00,0.0013
1880.00,0.0013
1879.00,0.0013
1878.00,0.0014
1877.00,0.0014
1876.00,0.0014
1875.00,0.0014
1874.00,0.0013
1873.00,0.0013
1872.00,0.0013
1871.00,0.0013
1870.00,0.0013
1869.00,0.0013
1868.00,0.0014
1867.00,0.0014
1866.00,0.0014
1865.00,0.0014
1864.00,0.0014
1863.00,0.0014
1862.00,0.0014
1861.00,0.0014
1860.00,0.0014
1859.00,0.0014
1858.00,0.0013
1857.00,0.0013
1856.00,0.0013
1855.00,0.0013
1854.00,0.0013
1853.00,0.0013
1852.00,0.0013
1851.00,0.0013
1850.00,0.0013
1849.00,0.0014
1848.00,0.0014
1847.00,0.0014
1846.00,0.0014
1845.00,0.0013
1844.00,0.0013
1843.00,0.0013
1842.00,0.0013
1841.00,0.0013
1840.00,0.0013
1839.00,0.0013
1838.00,0.0013
1837.00,0.0014
1836.00,0.0014
1835.00,0.0015
1834.00,0.0015
1833.00,0.0015
1832.00,0.0014
1831.00,0.0014
1830.00,0.0015
1829.00,0.0015
1828.00,0.0015
1827.00,0.0015
1826.00,0.0015
1825.00,0.0015
1824.00,0.0016
1823.00,0.0016
1822.00,0.0016
1821.00,0.0016
1820.00,0.0015
1819.00,0.0014
1818.00,0.0014
1817.00,0.0013
1816.00,0.0013
1815.00,0.0014
1814.00,0.0015
1813.00,0.0016
1812.00,0.0016
1811.00,0.0017
1810.00,0.0017
1809.00,0.0018
1808.00,0.0018
1807.00,0.0019
1806.00,0.0019
1805.00,0.0019
1804.00,0.0019
1803.00,0.0019
1802.00,0.0019
1801.00,0.0019
1800.00,0.0019
1799.00,0.0019
1798.00,0.0019
1797.00,0.0019
1796.00,0.0019
1795.00,0.0018
1794.00,0.0018
1793.00,0.0018
1792.00,0.0017
1791.00,0.0018
1790.00,0.0018
1789.00,0.0018
1788.00,0.0018
1787.00,0.0018
1786.00,0.0018
1785.00,0.0018
1784.00,0.0018
1783.00,0.0018
1782.00,0.0018
1781.00,0.0018
1780.00,0.0018
1779.00,0.0018
1778.00,0.0018
1777.00,0.0018
1776.00,0.0019
1775.00,0.0019
1774.00,0.0019
1773.00,0.0020
1772.00,0.0021
1771.00,0.0021
1770.00,0.0021
1769.00,0.0021
1768.00,0.0021
1767.00,0.0020
1766.00,0.0020
1765.00,0.0020
1764.00,0.0019
1763.00,0.0019
1762.00,0.0018
1761.00,0.0018
1760.00,0.0018
1759.00,0.0018
1758.00,0.0018
1757.00,0.0018
1756.00,0.0018
1755.00,0.0018
1754.00,0.0018
1753.00,0.0017
1752.00,0.0017
1751.00,0.0017
1750.00,0.0017
1749.00,0.0017
1748.00,0.0017
1747.00,0.0017
1746.00,0.0018
1745.00,0.0017
1744.00,0.0018
1743.00,0.0018
1742.00,0.0018
1741.00,0.0018
1740.00,0.0018
1739.00,0.0018
1738.00,0.0018
1737.00,0.0018
1736.00,0.0018
1735.00,0.0018
1734.00,0.0019
1733.00,0.0019
1732.00,0.0018
1731.00,0.0018
1730.00,0.0018
1729.00,0.0019
1728.00,0.0019
1727.00,0.0019
1726.00,0.0019
1725.00,0.0019
1724.00,0.0019
1723.00,0.0020
1722.00,0.0020
1721.00,0.0020
1720.00,0.0019
1719.00,0.0019
1718.00,0.0019
1717.00,0.0020
1716.00,0.0020
1715.00,0.0020
1714.00,0.0020
1713.00,0.0020
1712.00,0.0020
1711.00,0.0021
1710.00,0.0021
1709.00,0.0021
1708.00,0.0021
1707.00,0.0021
1706.00,0.0021
1705.00,0.0021
1704.00,0.0021
1703.00,0.0021
1702.00,0.0021
1701.00,0.0021
1700.00,0.0020
1699.00,0.0020
1698.00,0.0020
1697.00,0.0020
1696.00,0.0020
1695.00,0.0019
1694.00,0.0018
1693.00,0.0017
1692.00,0.0016
1691.00,0.0015
1690.00,0.0015
1689.00,0.0014
1688.00,0.0014
1687.00,0.0014
1686.00,0.0014
1685.00,0.0014
1684.00,0.0014
1683.00,0.0013
1682.00,0.0013
1681.00,0.0013
1680.00,0.0013
1679.00,0.0014
1678.00,0.0014
1677.00,0.0014
1676.00,0.0015
1675.00,0.0016
1674.00,0.0017
1673.00,0.0017
1672.00,0.0018
1671.00,0.0018
1670.00,0.0019
1669.00,0.0021
1668.00,0.0022
1667.00,0.0023
1666.00,0.0024
1665.00,0.0026
1664.00,0.0027
1663.00,0.0029
1662.00,0.0029
1661.00,0.0030
1660.00,0.0030
1659.00,0.0030
1658.00,0.0030
1657.00,0.0031
1656.00,0.0032
1655.00,0.0034
1654.00,0.0037
1653.00,0.0041
1652.00,0.0046
1651.00,0.0049
1650.00,0.0054
1649.00,0.0060
1648.00,0.0071
1647.00,0.0087
1646.00,0.0105
1645.00,0.0121
1644.00,0.0130
1643.00,0.0134
1642.00,0.0133
1641.00,0.0129
1640.00,0.0124
1639.00,0.0123
1638.00,0.0124
1637.00,0.0131
1636.00,0.0142
1635.00,0.0157
1634.00,0.0172
1633.00,0.0185
1632.00,0.0197
1631.00,0.0207
1630.00,0.0215
1629.00,0.0221
1628.00,0.0227
1627.00,0.0235
1626.00,0.0246
1625.00,0.0258
1624.00,0.0267
1623.00,0.0270
1622.00,0.0266
1621.00,0.0256
1620.00,0.0243
1619.00,0.0226
1618.00,0.0205
1617.00,0.0180
1616.00,0.0155
1615.00,0.0137
1614.00,0.0124
1613.00,0.0115
1612.00,0.0107
1611.00,0.0099
1610.00,0.0092
1609.00,0.0086
1608.00,0.0082
1607.00,0.0077
1606.00,0.0074
1605.00,0.0072
1604.00,0.0070
1603.00,0.0069
1602.00,0.0069
1601.00,0.0070
1600.00,0.0071
1599.00,0.0073
1598.00,0.0076
1597.00,0.0080
1596.00,0.0085
1595.00,0.0092
1594.00,0.0102
1593.00,0.0114
1592.00,0.0129
1591.00,0.0149
1590.00,0.0171
1589.00,0.0196
1588.00,0.0222
1587.00,0.0247
1586.00,0.0270
1585.00,0.0290
1584.00,0.0307
1583.00,0.0321
1582.00,0.0329
1581.00,0.0331
1580.00,0.0327
1579.00,0.0318
1578.00,0.0302
1577.00,0.0278
1576.00,0.0247
1575.00,0.0217
1574.00,0.0196
1573.00,0.0182
1572.00,0.0169
1571.00,0.0155
1570.00,0.0140
1569.00,0.0124
1568.00,0.0112
1567.00,0.0102
1566.00,0.0094
1565.00,0.0087
1564.00,0.0081
1563.00,0.0077
1562.00,0.0074
1561.00,0.0071
1560.00,0.0067
1559.00,0.0062
1558.00,0.0058
1557.00,0.0056
1556.00,0.0054
1555.00,0.0053
1554.00,0.0052
1553.00,0.0051
1552.00,0.0049
1551.00,0.0048
1550.00,0.0047
1549.00,0.0046
1548.00,0.0045
1547.00,0.0044
1546.00,0.0044
1545.00,0.0043
1544.00,0.0042
1543.00,0.0042
1542.00,0.0042
1541.00,0.0042
1540.00,0.0042
1539.00,0.0041
1538.00,0.0041
1537.00,0.0041
1536.00,0.0041
1535.00,0.0041
1534.00,0.0041
1533.00,0.0041
1532.00,0.0041
1531.00,0.0041
1530.00,0.0041
1529.00,0.0041
1528.00,0.0042
1527.00,0.0043
1526.00,0.0044
1525.00,0.0046
1524.00,0.0047
1523.00,0.0050
1522.00,0.0054
1521.00,0.0060
1520.00,0.0066
1519.00,0.0072
1518.00,0.0078
1517.00,0.0084
1516.00,0.0090
1515.00,0.0093
1514.00,0.0095
1513.00,0.0094
1512.00,0.0091
1511.00,0.0087
1510.00,0.0083
1509.00,0.0079
1508.00,0.0074
1507.00,0.0069
1506.00,0.0065
1505.00,0.0061
1504.00,0.0060
1503.00,0.0059
1502.00,0.0058
1501.00,0.0057
1500.00,0.0056
1499.00,0.0055
1498.00,0.0053
1497.00,0.0051
1496.00,0.0049
1495.00,0.0047
1494.00,0.0045
1493.00,0.0043
1492.00,0.0042
1491.00,0.0041
1490.00,0.0040
1489.00,0.0039
1488.00,0.0039
1487.00,0.0039
1486.00,0.0039
1485.00,0.0039
1484.00,0.0039
1483.00,0.0039
1482.00,0.0039
1481.00,0.0040
1480.00,0.0041
1479.00,0.0041
1478.00,0.0042
1477.00,0.0044
1476.00,0.0045
1475.00,0.0047
1474.00,0.0050
1473.00,0.0054
1472.00,0.0060
1471.00,0.0068
1470.00,0.0078
1469.00,0.0089
1468.00,0.0100
1467.00,0.0111
1466.00,0.0119
1465.00,0.0124
1464.00,0.0128
1463.00,0.0132
1462.00,0.0137
1461.00,0.0142
1460.00,0.0148
1459.00,0.0152
1458.00,0.0156
1457.00,0.0158
1456.00,0.0163
1455.00,0.0171
1454.00,0.0182
1453.00,0.0197
1452.00,0.0215
1451.00,0.0236
1450.00,0.0259
1449.00,0.0284
1448.00,0.0310
1447.00,0.0334
1446.00,0.0356
1445.00,0.0373
1444.00,0.0384
1443.00,0.0390
1442.00,0.0391
1441.00,0.0390
1440.00,0.0389
1439.00,0.0386
1438.00,0.0379
1437.00,0.0367
1436.00,0.0350
1435.00,0.0335
1434.00,0.0324
1433.00,0.0315
1432.00,0.0303
1431.00,0.0288
1430.00,0.0269
1429.00,0.0248
1428.00,0.0224
1427.00,0.0201
1426.00,0.0179
1425.00,0.0158
1424.00,0.0139
1423.00,0.0123
1422.00,0.0112
1421.00,0.0104
1420.00,0.0095
1419.00,0.0087
1418.00,0.0081
1417.00,0.0077
1416.00,0.0073
1415.00,0.0071
1414.00,0.0069
1413.00,0.0067
1412.00,0.0064
1411.00,0.0063
1410.00,0.0061
1409.00,0.0060
1408.00,0.0059
1407.00,0.0058
1406.00,0.0058
1405.00,0.0057
1404.00,0.0057
1403.00,0.0056
1402.00,0.0056
1401.00,0.0055
1400.00,0.0054
1399.00,0.0053
1398.00,0.0054
1397.00,0.0054
1396.00,0.0053
1395.00,0.0053
1394.00,0.0053
1393.00,0.0052
1392.00,0.0052
1391.00,0.0052
1390.00,0.0052
1389.00,0.0053
1388.00,0.0053
1387.00,0.0055
1386.00,0.0057
1385.00,0.0061
1384.00,0.0065
1383.00,0.0071
1382.00,0.0080
1381.00,0.0091
1380.00,0.0105
1379.00,0.0123
1378.00,0.0143
1377.00,0.0162
1376.00,0.0177
1375.00,0.0186
1374.00,0.0185
1373.00,0.0178
1372.00,0.0168
1371.00,0.0157
1370.00,0.0146
1369.00,0.0137
1368.00,0.0128
1367.00,0.0121
1366.00,0.0115
1365.00,0.0109
1364.00,0.0104
1363.00,0.0098
1362.00,0.0094
1361.00,0.0090
1360.00,0.0087
1359.00,0.0085
1358.00,0.0084
1357.00,0.0084
1356.00,0.0083
1355.00,0.0083
1354.00,0.0084
1353.00,0.0084
1352.00,0.0085
1351.00,0.0086
1350.00,0.0087
1349.00,0.0088
1348.00,0.0090
1347.00,0.0093
1346.00,0.0096
1345.00,0.0098
1344.00,0.0101
1343.00,0.0103
1342.00,0.0104
1341.00,0.0104
1340.00,0.0102
1339.00,0.0099
1338.00,0.0095
1337.00,0.0092
1336.00,0.0090
1335.00,0.0089
1334.00,0.0090
1333.00,0.0092
1332.00,0.0095
1331.00,0.0099
1330.00,0.0103
1329.00,0.0107
1328.00,0.0111
1327.00,0.0115
1326.00,0.0119
1325.00,0.0122
1324.00,0.0124
1323.00,0.0124
1322.00,0.0121
1321.00,0.0117
1320.00,0.0112
1319.00,0.0109
1318.00,0.0110
1317.00,0.0115
1316.00,0.0123
1315.00,0.0135
1314.00,0.0149
1313.00,0.0162
1312.00,0.0172
1311.00,0.0177
1310.00,0.0177
1309.00,0.0174
1308.00,0.0169
1307.00,0.0166
1306.00,0.0165
1305.00,0.0166
1304.00,0.0169
1303.00,0.0173
1302.00,0.0176
1301.00,0.0177
1300.00,0.0177
1299.00,0.0175
1298.00,0.0173
1297.00,0.0169
1296.00,0.0165
1295.00,0.0160
1294.00,0.0156
1293.00,0.0151
1292.00,0.0146
1291.00,0.0141
1290.00,0.0137
1289.00,0.0135
1288.00,0.0134
1287.00,0.0136
1286.00,0.0140
1285.00,0.0146
1284.00,0.0153
1283.00,0.0160
1282.00,0.0167
1281.00,0.0173
1280.00,0.0178
1279.00,0.0181
1278.00,0.0181
1277.00,0.0180
1276.00,0.0177
1275.00,0.0171
1274.00,0.0164
1273.00,0.0156
1272.00,0.0146
1271.00,0.0135
1270.00,0.0124
1269.00,0.0114
1268.00,0.0104
1267.00,0.0096
1266.00,0.0089
1265.00,0.0084
1264.00,0.0079
1263.00,0.0075
1262.00,0.0072
1261.00,0.0069
1260.00,0.0067
1259.00,0.0065
1258.00,0.0064
1257.00,0.0063
1256.00,0.0062
1255.00,0.0063
1254.00,0.0064
1253.00,0.0067
1252.00,0.0070
1251.00,0.0074
1250.00,0.0079
1249.00,0.0083
1248.00,0.0087
1247.00,0.0089
1246.00,0.0091
1245.00,0.0095
1244.00,0.0101
1243.00,0.0111
1242.00,0.0125
1241.00,0.0141
1240.00,0.0160
1239.00,0.0178
1238.00,0.0194
1237.00,0.0205
1236.00,0.0211
1235.00,0.0212
1234.00,0.0210
1233.00,0.0205
1232.00,0.0198
1231.00,0.0191
1230.00,0.0185
1229.00,0.0183
1228.00,0.0186
1227.00,0.0195
1226.00,0.0208
1225.00,0.0224
1224.00,0.0241
1223.00,0.0258
1222.00,0.0278
1221.00,0.0300
1220.00,0.0326
1219.00,0.0356
1218.00,0.0388
1217.00,0.0420
1216.00,0.0447
1215.00,0.0466
1214.00,0.0474
1213.00,0.0471
1212.00,0.0458
1211.00,0.0438
1210.00,0.0414
1209.00,0.0389
1208.00,0.0364
1207.00,0.0341
1206.00,0.0321
1205.00,0.0301
1204.00,0.0282
1203.00,0.0262
1202.00,0.0242
1201.00,0.0222
1200.00,0.0203
1199.00,0.0186
1198.00,0.0171
1197.00,0.0159
1196.00,0.0149
1195.00,0.0142
1194.00,0.0137
1193.00,0.0134
1192.00,0.0133
1191.00,0.0134
1190.00,0.0136
1189.00,0.0139
1188.00,0.0142
1187.00,0.0145
1186.00,0.0149
1185.00,0.0153
1184.00,0.0157
1183.00,0.0161
1182.00,0.0164
1181.00,0.0166
1180.00,0.0167
1179.00,0.0169
1178.00,0.0170
1177.00,0.0172
1176.00,0.0173
1175.00,0.0177
1174.00,0.0183
1173.00,0.0191
1172.00,0.0196
1171.00,0.0195
1170.00,0.0185
1169.00,0.0168
1168.00,0.0150
1167.00,0.0133
1166.00,0.0119
1165.00,0.0109
1164.00,0.0100
1163.00,0.0094
1162.00,0.0089
1161.00,0.0087
1160.00,0.0085
1159.00,0.0085
1158.00,0.0087
1157.00,0.0091
1156.00,0.0098
1155.00,0.0110
1154.00,0.0128
1153.00,0.0151
1152.00,0.0175
1151.00,0.0194
1150.00,0.0201
1149.00,0.0192
1148.00,0.0172
1147.00,0.0148
1146.00,0.0125
1145.00,0.0107
1144.00,0.0095
1143.00,0.0087
1142.00,0.0082
1141.00,0.0079
1140.00,0.0078
1139.00,0.0078
1138.00,0.0079
1137.00,0.0081
1136.00,0.0083
1135.00,0.0084
1134.00,0.0085
1133.00,0.0083
1132.00,0.0080
1131.00,0.0075
1130.00,0.0071
1129.00,0.0067
1128.00,0.0064
1127.00,0.0061
1126.00,0.0059
1125.00,0.0058
1124.00,0.0057
1123.00,0.0056
1122.00,0.0056
1121.00,0.0055
1120.00,0.0055
1119.00,0.0054
1118.00,0.0055
1117.00,0.0055
1116.00,0.0055
1115.00,0.0056
1114.00,0.0057
1113.00,0.0058
1112.00,0.0059
1111.00,0.0060
1110.00,0.0062
1109.00,0.0065
1108.00,0.0067
1107.00,0.0070
1106.00,0.0073
1105.00,0.0077
1104.00,0.0080
1103.00,0.0085
1102.00,0.0090
1101.00,0.0096
1100.00,0.0101
1099.00,0.0104
1098.00,0.0105
1097.00,0.0102
1096.00,0.0096
1095.00,0.0089
1094.00,0.0083
1093.00,0.0079
1092.00,0.0075
1091.00,0.0072
1090.00,0.0070
1089.00,0.0068
1088.00,0.0066
1087.00,0.0066
1086.00,0.0068
1085.00,0.0071
1084.00,0.0076
1083.00,0.0083
1082.00,0.0091
1081.00,0.0099
1080.00,0.0105
1079.00,0.0107
1078.00,0.0106
1077.00,0.0102
1076.00,0.0095
1075.00,0.0088
1074.00,0.0083
1073.00,0.0078
1072.00,0.0075
1071.00,0.0072
1070.00,0.0070
1069.00,0.0069
1068.00,0.0067
1067.00,0.0067
1066.00,0.0067
1065.00,0.0067
1064.00,0.0068
1063.00,0.0070
1062.00,0.0072
1061.00,0.0076
1060.00,0.0080
1059.00,0.0088
1058.00,0.0100
1057.00,0.0117
1056.00,0.0138
1055.00,0.0163
1054.00,0.0188
1053.00,0.0208
1052.00,0.0220
1051.00,0.0225
1050.00,0.0224
1049.00,0.0214
1048.00,0.0199
1047.00,0.0180
1046.00,0.0161
1045.00,0.0146
1044.00,0.0136
1043.00,0.0130
1042.00,0.0130
1041.00,0.0131
1040.00,0.0135
1039.00,0.0141
1038.00,0.0151
1037.00,0.0164
1036.00,0.0180
1035.00,0.0200
1034.00,0.0222
1033.00,0.0240
1032.00,0.0250
1031.00,0.0251
1030.00,0.0244
1029.00,0.0232
1028.00,0.0218
1027.00,0.0208
1026.00,0.0203
1025.00,0.0205
1024.00,0.0214
1023.00,0.0231
1022.00,0.0254
1021.00,0.0280
1020.00,0.0302
1019.00,0.0316
1018.00,0.0319
1017.00,0.0310
1016.00,0.0292
1015.00,0.0271
1014.00,0.0250
1013.00,0.0230
1012.00,0.0213
1011.00,0.0201
1010.00,0.0194
1009.00,0.0191
1008.00,0.0191
1007.00,0.0195
1006.00,0.0202
1005.00,0.0211
1004.00,0.0221
1003.00,0.0229
1002.00,0.0232
1001.00,0.0230
1000.00,0.0222
999.00,0.0208
998.00,0.0191
997.00,0.0173
996.00,0.0157
995.00,0.0143
994.00,0.0134
993.00,0.0127
992.00,0.0123
991.00,0.0122
990.00,0.0124
989.00,0.0127
988.00,0.0131
987.00,0.0135
986.00,0.0138
985.00,0.0140
984.00,0.0139
983.00,0.0135
982.00,0.0129
981.00,0.0122
980.00,0.0115
979.00,0.0111
978.00,0.0108
977.00,0.0105
976.00,0.0103
975.00,0.0102
974.00,0.0101
973.00,0.0101
972.00,0.0101
971.00,0.0103
970.00,0.0106
969.00,0.0110
968.00,0.0115
967.00,0.0120
966.00,0.0127
965.00,0.0134
964.00,0.0143
963.00,0.0152
962.00,0.0159
961.00,0.0162
960.00,0.0160
959.00,0.0152
958.00,0.0140
957.00,0.0128
956.00,0.0115
955.00,0.0105
954.00,0.0097
953.00,0.0091
952.00,0.0086
951.00,0.0082
950.00,0.0080
949.00,0.0077
948.00,0.0075
947.00,0.0073
946.00,0.0072
945.00,0.0071
944.00,0.0070
943.00,0.0069
942.00,0.0069
941.00,0.0068
940.00,0.0067
939.00,0.0066
938.00,0.0066
937.00,0.0066
936.00,0.0065
935.00,0.0065
934.00,0.0066
933.00,0.0068
932.00,0.0069
931.00,0.0071
930.00,0.0072
929.00,0.0074
928.00,0.0074
927.00,0.0073
926.00,0.0073
925.00,0.0073
924.00,0.0072
923.00,0.0072
922.00,0.0072
921.00,0.0073
920.00,0.0074
919.00,0.0076
918.00,0.0079
917.00,0.0083
916.00,0.0086
915.00,0.0087
914.00,0.0088
913.00,0.0087
912.00,0.0086
911.00,0.0086
910.00,0.0088
909.00,0.0092
908.00,0.0097
907.00,0.0104
906.00,0.0114
905.00,0.0125
904.00,0.0137
903.00,0.0151
902.00,0.0169
901.00,0.0191
900.00,0.0218
899.00,0.0248
898.00,0.0278
897.00,0.0299
896.00,0.0307
895.00,0.0300
894.00,0.0282
893.00,0.0258
892.00,0.0234
891.00,0.0215
890.00,0.0203
889.00,0.0200
888.00,0.0209
887.00,0.0229
886.00,0.0261
885.00,0.0299
884.00,0.0331
883.00,0.0348
882.00,0.0344
881.00,0.0321
880.00,0.0286
879.00,0.0249
878.00,0.0217
877.00,0.0192
876.00,0.0174
875.00,0.0163
874.00,0.0159
873.00,0.0159
872.00,0.0163
871.00,0.0169
870.00,0.0174
869.00,0.0175
868.00,0.0173
867.00,0.0170
866.00,0.0171
865.00,0.0177
864.00,0.0188
863.00,0.0200
862.00,0.0210
861.00,0.0216
860.00,0.0216
859.00,0.0213
858.00,0.0213
857.00,0.0215
856.00,0.0219
855.00,0.0225
854.00,0.0232
853.00,0.0238
852.00,0.0242
851.00,0.0244
850.00,0.0243
849.00,0.0239
848.00,0.0231
847.00,0.0222
846.00,0.0215
845.00,0.0210
844.00,0.0206
843.00,0.0202
842.00,0.0199
841.00,0.0194
840.00,0.0189
839.00,0.0185
838.00,0.0184
837.00,0.0185
836.00,0.0188
835.00,0.0193
834.00,0.0200
833.00,0.0208
832.00,0.0216
831.00,0.0224
830.00,0.0232
829.00,0.0239
828.00,0.0243
827.00,0.0244
826.00,0.0241
825.00,0.0233
824.00,0.0221
823.00,0.0206
822.00,0.0191
821.00,0.0175
820.00,0.0160
819.00,0.0145
818.00,0.0134
817.00,0.0125
816.00,0.0118
815.00,0.0112
814.00,0.0109
813.00,0.0107
812.00,0.0105
811.00,0.0105
810.00,0.0108
809.00,0.0116
808.00,0.0131
807.00,0.0152
806.00,0.0176
805.00,0.0195
804.00,0.0203
803.00,0.0198
802.00,0.0184
801.00,0.0167
800.00,0.0150
799.00,0.0136
798.00,0.0125
797.00,0.0117
796.00,0.0110
795.00,0.0106
794.00,0.0104
793.00,0.0103
792.00,0.0102
791.00,0.0100
790.00,0.0099
789.00,0.0098
788.00,0.0097
787.00,0.0097
786.00,0.0098
785.00,0.0098
784.00,0.0097
783.00,0.0094
782.00,0.0092
781.00,0.0090
780.00,0.0088
779.00,0.0088
778.00,0.0088
777.00,0.0088
776.00,0.0086
775.00,0.0085
774.00,0.0084
773.00,0.0084
772.00,0.0084
771.00,0.0084
770.00,0.0084
769.00,0.0084
768.00,0.0082
767.00,0.0080
766.00,0.0077
765.00,0.0074
764.00,0.0071
763.00,0.0069
762.00,0.0069
761.00,0.0068
760.00,0.0068
759.00,0.0068
758.00,0.0068
757.00,0.0070
756.00,0.0073
755.00,0.0077
754.00,0.0085
753.00,0.0092
752.00,0.0098
751.00,0.0103
750.00,0.0107
749.00,0.0109
748.00,0.0107
747.00,0.0103
746.00,0.0097
745.00,0.0090
744.00,0.0083
743.00,0.0078
742.00,0.0075
741.00,0.0072
740.00,0.0069
739.00,0.0068
738.00,0.0068
737.00,0.0070
736.00,0.0072
735.00,0.0076
734.00,0.0082
733.00,0.0090
732.00,0.0097
731.00,0.0101
730.00,0.0102
729.00,0.0099
728.00,0.0093
727.00,0.0088
726.00,0.0085
725.00,0.0083
724.00,0.0081
723.00,0.0079
722.00,0.0079
721.00,0.0078
720.00,0.0076
719.00,0.0075
718.00,0.0073
717.00,0.0071
716.00,0.0068
715.00,0.0066
714.00,0.0065
713.00,0.0064
712.00,0.0064
711.00,0.0063
710.00,0.0064
709.00,0.0063
708.00,0.0061
707.00,0.0060
706.00,0.0059
705.00,0.0058
704.00,0.0056
703.00,0.0055
702.00,0.0055
701.00,0.0056
700.00,0.0056
699.00,0.0056
698.00,0.0057
697.00,0.0057
696.00,0.0056
695.00,0.0056
694.00,0.0056
693.00,0.0056
692.00,0.0055
691.00,0.0055
690.00,0.0055
689.00,0.0056
688.00,0.0056
687.00,0.0056
686.00,0.0058
685.00,0.0059
684.00,0.0059
683.00,0.0059
682.00,0.0061
681.00,0.0061
680.00,0.0062
679.00,0.0063
678.00,0.0065
677.00,0.0067
676.00,0.0069
675.00,0.0071
674.00,0.0074
673.00,0.0078
672.00,0.0082
671.00,0.0087
670.00,0.0093
669.00,0.0098
668.00,0.0100
667.00,0.0101
666.00,0.0102
665.00,0.0104
664.00,0.0106
663.00,0.0107
662.00,0.0108
661.00,0.0108
660.00,0.0108
659.00,0.0108
658.00,0.0108
657.00,0.0108
656.00,0.0107
655.00,0.0106
654.00,0.0107
653.00,0.0108
652.00,0.0110
651.00,0.0113
650.00,0.0117
649.00,0.0119
648.00,0.0118
647.00,0.0116
646.00,0.0114
645.00,0.0110
644.00,0.0105
643.00,0.0099
642.00,0.0096
641.00,0.0093
640.00,0.0090
639.00,0.0088
638.00,0.0087
637.00,0.0088
636.00,0.0088
635.00,0.0088
634.00,0.0090
633.00,0.0092
632.00,0.0093
631.00,0.0094
630.00,0.0096
629.00,0.0099
628.00,0.0100
627.00,0.0103
626.00,0.0106
625.00,0.0108
624.00,0.0109
623.00,0.0109
622.00,0.0108
621.00,0.0106
620.00,0.0101
619.00,0.0095
618.00,0.0091
617.00,0.0087
616.00,0.0086
615.00,0.0088
614.00,0.0097
613.00,0.0107
612.00,0.0117
611.00,0.0123
610.00,0.0126
609.00,0.0125
608.00,0.0121
607.00,0.0119
606.00,0.0120
605.00,0.0121
604.00,0.0123
603.00,0.0125
602.00,0.0130
601.00,0.0136
600.00,0.0141
599.00,0.0145
598.00,0.0148
597.00,0.0149
596.00,0.0147
595.00,0.0146
594.00,0.0148
593.00,0.0152
592.00,0.0156
591.00,0.0163
590.00,0.0172
589.00,0.0180
588.00,0.0186
587.00,0.0189
586.00,0.0191
585.00,0.0189
584.00,0.0183
583.00,0.0177
582.00,0.0170
581.00,0.0163
580.00,0.0154
579.00,0.0147
578.00,0.0143
577.00,0.0141
576.00,0.0139
575.00,0.0140
574.00,0.0144
573.00,0.0148
572.00,0.0150
571.00,0.0151
570.00,0.0154
569.00,0.0156
568.00,0.0157
567.00,0.0158
566.00,0.0161
565.00,0.0163
564.00,0.0162
563.00,0.0161
562.00,0.0162
561.00,0.0163
560.00,0.0162
559.00,0.0161
558.00,0.0162
557.00,0.0162
556.00,0.0161
555.00,0.0161
554.00,0.0164
553.00,0.0168
552.00,0.0171
551.00,0.0175
550.00,0.0180
549.00,0.0184
548.00,0.0186
547.00,0.0188
546.00,0.0193
545.00,0.0199
544.00,0.0203
543.00,0.0207
542.00,0.0211
541.00,0.0214
540.00,0.0218
539.00,0.0226
538.00,0.0240
537.00,0.0253
536.00,0.0261
535.00,0.0264
534.00,0.0262
533.00,0.0258
532.00,0.0251
531.00,0.0245
530.00,0.0244
529.00,0.0243
528.00,0.0244
527.00,0.0248
526.00,0.0260
525.00,0.0275
524.00,0.0290
523.00,0.0305
522.00,0.0316
521.00,0.0316
520.00,0.0303
519.00,0.0281
518.00,0.0259
517.00,0.0238
516.00,0.0220
515.00,0.0207
514.00,0.0202
513.00,0.0199
512.00,0.0197
511.00,0.0198
510.00,0.0204
509.00,0.0211
508.00,0.0218
507.00,0.0226
506.00,0.0238
505.00,0.0250
504.00,0.0258
503.00,0.0268
502.00,0.0282
501.00,0.0296
500.00,0.0306
499.00,0.0315
498.00,0.0325
497.00,0.0333
496.00,0.0336
495.00,0.0337
494.00,0.0338
493.00,0.0338
492.00,0.0336
491.00,0.0334
490.00,0.0336
489.00,0.0336
488.00,0.0333
487.00,0.0330
486.00,0.0329
485.00,0.0328
484.00,0.0325
483.00,0.0321
482.00,0.0319
481.00,0.0316
480.00,0.0308
479.00,0.0300
478.00,0.0297
477.00,0.0295
476.00,0.0290
475.00,0.0286
474.00,0.0287
473.00,0.0290
472.00,0.0292
471.00,0.0297
470.00,0.0308
469.00,0.0317
468.00,0.0320
467.00,0.0319
466.00,0.0320
465.00,0.0321
464.00,0.0318
463.00,0.0315
462.00,0.0314
461.00,0.0313
460.00,0.0310
459.00,0.0309
458.00,0.0310
457.00,0.0309
456.00,0.0303
455.00,0.0299
454.00,0.0300
453.00,0.0298
452.00,0.0291
451.00,0.0285
450.00,0.0284
449.00,0.0284
448.00,0.0280
447.00,0.0278
446.00,0.0279
445.00,0.0278
444.00,0.0272
443.00,0.0266
442.00,0.0263
441.00,0.0261
440.00,0.0256
439.00,0.0254
438.00,0.0259
437.00,0.0263
436.00,0.0260
435.00,0.0257
434.00,0.0257
433.00,0.0257
432.00,0.0256
431.00,0.0260
430.00,0.0275
429.00,0.0290
428.00,0.0297
427.00,0.0303
426.00,0.0311
425.00,0.0317
424.00,0.0313
423.00,0.0309
422.00,0.0312
421.00,0.0316
420.00,0.0310
419.00,0.0302
418.00,0.0299
417.00,0.0296
416.00,0.0289
415.00,0.0288
414.00,0.0298
413.00,0.0308
412.00,0.0307
411.00,0.0305
410.00,0.0313
409.00,0.0321
408.00,0.0321
407.00,0.0328
406.00,0.0348
405.00,0.0366
404.00,0.0367
403.00,0.0360
402.00,0.0360
401.00,0.0362
400.00,0.0358
