Created as New Dataset,Sample 953 By YargerLab Date Tuesday, July 29 2025
cm-1,A
4000.00,0.0022
3999.00,0.0022
3998.00,0.0022
3997.00,0.0022
3996.00,0.0021
3995.00,0.0021
3994.00,0.0021
3993.00,0.0021
3992.00,0.0021
3991.00,0.0021
3990.00,0.0021
3989.00,0.0021
3988.00,0.0021
3987.00,0.0021
3986.00,0.0021
3985.00,0.0021
3984.00,0.0021
3983.00,0.0021
3982.00,0.0021
3981.00,0.0021
3980.00,0.0021
3979.00,0.0021
3978.00,0.0021
3977.00,0.0021
3976.00,0.0021
3975.00,0.0021
3974.00,0.0021
3973.00,0.0021
3972.00,0.0021
3971.00,0.0021
3970.00,0.0021
3969.00,0.0021
3968.00,0.0021
3967.00,0.0021
3966.00,0.0021
3965.00,0.0021
3964.00,0.0021
3963.00,0.0021
3962.00,0.0021
3961.00,0.0021
3960.00,0.0021
3959.00,0.0021
3958.00,0.0021
3957.00,0.0021
3956.00,0.0021
3955.00,0.0021
3954.00,0.0021
3953.00,0.0021
3952.00,0.0021
3951.00,0.0021
3950.00,0.0021
3949.00,0.0021
3948.00,0.0020
3947.00,0.0020
3946.00,0.0021
3945.00,0.0021
3944.00,0.0021
3943.00,0.0020
3942.00,0.0020
3941.00,0.0020
3940.00,0.0021
3939.00,0.0021
3938.00,0.0021
3937.00,0.0021
3936.00,0.0021
3935.00,0.0021
3934.00,0.0021
3933.00,0.0021
3932.00,0.0021
3931.00,0.0021
3930.00,0.0021
3929.00,0.0021
3928.00,0.0021
3927.00,0.0021
3926.00,0.0021
3925.00,0.0021
3924.00,0.0021
3923.00,0.0020
3922.00,0.0020
3921.00,0.0020
3920.00,0.0020
3919.00,0.0020
3918.00,0.0020
3917.00,0.0020
3916.00,0.0020
3915.00,0.0020
3914.00,0.0021
3913.00,0.0020
3912.00,0.0020
3911.00,0.0021
3910.00,0.0021
3909.00,0.0021
3908.00,0.0021
3907.00,0.0021
3906.00,0.0020
3905.00,0.0020
3904.00,0.0019
3903.00,0.0019
3902.00,0.0019
3901.00,0.0018
3900.00,0.0018
3899.00,0.0019
3898.00,0.0020
3897.00,0.0020
3896.00,0.0020
3895.00,0.0020
3894.00,0.0020
3893.00,0.0020
3892.00,0.0020
3891.00,0.0020
3890.00,0.0020
3889.00,0.0020
3888.00,0.0019
3887.00,0.0019
3886.00,0.0019
3885.00,0.0019
3884.00,0.0019
3883.00,0.0019
3882.00,0.0019
3881.00,0.0019
3880.00,0.0019
3879.00,0.0019
3878.00,0.0019
3877.00,0.0020
3876.00,0.0019
3875.00,0.0019
3874.00,0.0020
3873.00,0.0020
3872.00,0.0020
3871.00,0.0019
3870.00,0.0019
3869.00,0.0019
3868.00,0.0019
3867.00,0.0018
3866.00,0.0018
3865.00,0.0018
3864.00,0.0018
3863.00,0.0018
3862.00,0.0019
3861.00,0.0019
3860.00,0.0019
3859.00,0.0019
3858.00,0.0019
3857.00,0.0020
3856.00,0.0020
3855.00,0.0020
3854.00,0.0019
3853.00,0.0019
3852.00,0.0019
3851.00,0.0019
3850.00,0.0019
3849.00,0.0019
3848.00,0.0019
3847.00,0.0019
3846.00,0.0019
3845.00,0.0019
3844.00,0.0019
3843.00,0.0019
3842.00,0.0019
3841.00,0.0019
3840.00,0.0019
3839.00,0.0019
3838.00,0.0019
3837.00,0.0019
3836.00,0.0019
3835.00,0.0019
3834.00,0.0019
3833.00,0.0019
3832.00,0.0019
3831.00,0.0019
3830.00,0.0019
3829.00,0.0020
3828.00,0.0020
3827.00,0.0020
3826.00,0.0020
3825.00,0.0020
3824.00,0.0020
3823.00,0.0019
3822.00,0.0019
3821.00,0.0019
3820.00,0.0019
3819.00,0.0019
3818.00,0.0019
3817.00,0.0020
3816.00,0.0020
3815.00,0.0021
3814.00,0.0021
3813.00,0.0021
3812.00,0.0021
3811.00,0.0021
3810.00,0.0020
3809.00,0.0020
3808.00,0.0020
3807.00,0.0019
3806.00,0.0019
3805.00,0.0019
3804.00,0.0019
3803.00,0.0019
3802.00,0.0019
3801.00,0.0020
3800.00,0.0020
3799.00,0.0020
3798.00,0.0020
3797.00,0.0020
3796.00,0.0020
3795.00,0.0020
3794.00,0.0020
3793.00,0.0020
3792.00,0.0020
3791.00,0.0020
3790.00,0.0021
3789.00,0.0021
3788.00,0.0021
3787.00,0.0021
3786.00,0.0021
3785.00,0.0021
3784.00,0.0021
3783.00,0.0021
3782.00,0.0020
3781.00,0.0020
3780.00,0.0020
3779.00,0.0020
3778.00,0.0020
3777.00,0.0021
3776.00,0.0021
3775.00,0.0021
3774.00,0.0021
3773.00,0.0020
3772.00,0.0020
3771.00,0.0019
3770.00,0.0019
3769.00,0.0019
3768.00,0.0020
3767.00,0.0019
3766.00,0.0019
3765.00,0.0020
3764.00,0.0020
3763.00,0.0020
3762.00,0.0019
3761.00,0.0019
3760.00,0.0019
3759.00,0.0019
3758.00,0.0019
3757.00,0.0019
3756.00,0.0019
3755.00,0.0019
3754.00,0.0018
3753.00,0.0018
3752.00,0.0018
3751.00,0.0018
3750.00,0.0017
3749.00,0.0016
3748.00,0.0017
3747.00,0.0017
3746.00,0.0016
3745.00,0.0016
3744.00,0.0017
3743.00,0.0018
3742.00,0.0018
3741.00,0.0017
3740.00,0.0017
3739.00,0.0018
3738.00,0.0017
3737.00,0.0017
3736.00,0.0017
3735.00,0.0018
3734.00,0.0017
3733.00,0.0016
3732.00,0.0016
3731.00,0.0017
3730.00,0.0017
3729.00,0.0017
3728.00,0.0017
3727.00,0.0018
3726.00,0.0018
3725.00,0.0018
3724.00,0.0018
3723.00,0.0018
3722.00,0.0018
3721.00,0.0018
3720.00,0.0018
3719.00,0.0018
3718.00,0.0019
3717.00,0.0019
3716.00,0.0019
3715.00,0.0019
3714.00,0.0018
3713.00,0.0018
3712.00,0.0017
3711.00,0.0017
3710.00,0.0017
3709.00,0.0017
3708.00,0.0017
3707.00,0.0018
3706.00,0.0018
3705.00,0.0018
3704.00,0.0019
3703.00,0.0019
3702.00,0.0019
3701.00,0.0019
3700.00,0.0019
3699.00,0.0019
3698.00,0.0019
3697.00,0.0019
3696.00,0.0019
3695.00,0.0019
3694.00,0.0019
3693.00,0.0018
3692.00,0.0018
3691.00,0.0018
3690.00,0.0018
3689.00,0.0018
3688.00,0.0018
3687.00,0.0018
3686.00,0.0019
3685.00,0.0019
3684.00,0.0019
3683.00,0.0019
3682.00,0.0019
3681.00,0.0019
3680.00,0.0019
3679.00,0.0019
3678.00,0.0018
3677.00,0.0018
3676.00,0.0017
3675.00,0.0018
3674.00,0.0018
3673.00,0.0018
3672.00,0.0017
3671.00,0.0018
3670.00,0.0019
3669.00,0.0019
3668.00,0.0019
3667.00,0.0019
3666.00,0.0020
3665.00,0.0020
3664.00,0.0019
3663.00,0.0020
3662.00,0.0020
3661.00,0.0020
3660.00,0.0020
3659.00,0.0020
3658.00,0.0021
3657.00,0.0020
3656.00,0.0020
3655.00,0.0020
3654.00,0.0019
3653.00,0.0019
3652.00,0.0018
3651.00,0.0018
3650.00,0.0019
3649.00,0.0019
3648.00,0.0019
3647.00,0.0019
3646.00,0.0019
3645.00,0.0020
3644.00,0.0020
3643.00,0.0020
3642.00,0.0021
3641.00,0.0021
3640.00,0.0021
3639.00,0.0020
3638.00,0.0020
3637.00,0.0020
3636.00,0.0020
3635.00,0.0019
3634.00,0.0019
3633.00,0.0019
3632.00,0.0019
3631.00,0.0018
3630.00,0.0017
3629.00,0.0018
3628.00,0.0018
3627.00,0.0018
3626.00,0.0018
3625.00,0.0018
3624.00,0.0019
3623.00,0.0019
3622.00,0.0019
3621.00,0.0019
3620.00,0.0020
3619.00,0.0020
3618.00,0.0019
3617.00,0.0019
3616.00,0.0019
3615.00,0.0019
3614.00,0.0019
3613.00,0.0019
3612.00,0.0019
3611.00,0.0019
3610.00,0.0019
3609.00,0.0018
3608.00,0.0019
3607.00,0.0019
3606.00,0.0019
3605.00,0.0019
3604.00,0.0020
3603.00,0.0020
3602.00,0.0020
3601.00,0.0020
3600.00,0.0020
3599.00,0.0021
3598.00,0.0020
3597.00,0.0020
3596.00,0.0020
3595.00,0.0020
3594.00,0.0020
3593.00,0.0020
3592.00,0.0020
3591.00,0.0020
3590.00,0.0020
3589.00,0.0020
3588.00,0.0020
3587.00,0.0021
3586.00,0.0021
3585.00,0.0021
3584.00,0.0021
3583.00,0.0021
3582.00,0.0021
3581.00,0.0021
3580.00,0.0021
3579.00,0.0021
3578.00,0.0021
3577.00,0.0022
3576.00,0.0022
3575.00,0.0022
3574.00,0.0022
3573.00,0.0022
3572.00,0.0022
3571.00,0.0022
3570.00,0.0021
3569.00,0.0021
3568.00,0.0021
3567.00,0.0021
3566.00,0.0021
3565.00,0.0022
3564.00,0.0022
3563.00,0.0022
3562.00,0.0022
3561.00,0.0022
3560.00,0.0023
3559.00,0.0023
3558.00,0.0023
3557.00,0.0023
3556.00,0.0023
3555.00,0.0023
3554.00,0.0023
3553.00,0.0023
3552.00,0.0024
3551.00,0.0024
3550.00,0.0023
3549.00,0.0023
3548.00,0.0023
3547.00,0.0023
3546.00,0.0023
3545.00,0.0023
3544.00,0.0023
3543.00,0.0023
3542.00,0.0024
3541.00,0.0024
3540.00,0.0024
3539.00,0.0024
3538.00,0.0024
3537.00,0.0024
3536.00,0.0024
3535.00,0.0024
3534.00,0.0024
3533.00,0.0025
3532.00,0.0025
3531.00,0.0025
3530.00,0.0025
3529.00,0.0025
3528.00,0.0025
3527.00,0.0025
3526.00,0.0025
3525.00,0.0025
3524.00,0.0025
3523.00,0.0025
3522.00,0.0026
3521.00,0.0026
3520.00,0.0026
3519.00,0.0026
3518.00,0.0026
3517.00,0.0026
3516.00,0.0026
3515.00,0.0027
3514.00,0.0027
3513.00,0.0027
3512.00,0.0027
3511.00,0.0027
3510.00,0.0027
3509.00,0.0027
3508.00,0.0026
3507.00,0.0026
3506.00,0.0026
3505.00,0.0027
3504.00,0.0027
3503.00,0.0027
3502.00,0.0027
3501.00,0.0027
3500.00,0.0027
3499.00,0.0027
3498.00,0.0027
3497.00,0.0027
3496.00,0.0027
3495.00,0.0027
3494.00,0.0027
3493.00,0.0027
3492.00,0.0027
3491.00,0.0027
3490.00,0.0028
3489.00,0.0028
3488.00,0.0028
3487.00,0.0028
3486.00,0.0028
3485.00,0.0028
3484.00,0.0027
3483.00,0.0027
3482.00,0.0028
3481.00,0.0028
3480.00,0.0028
3479.00,0.0028
3478.00,0.0028
3477.00,0.0028
3476.00,0.0028
3475.00,0.0028
3474.00,0.0028
3473.00,0.0028
3472.00,0.0028
3471.00,0.0028
3470.00,0.0029
3469.00,0.0029
3468.00,0.0029
3467.00,0.0028
3466.00,0.0028
3465.00,0.0029
3464.00,0.0029
3463.00,0.0029
3462.00,0.0029
3461.00,0.0029
3460.00,0.0029
3459.00,0.0029
3458.00,0.0029
3457.00,0.0029
3456.00,0.0029
3455.00,0.0029
3454.00,0.0029
3453.00,0.0029
3452.00,0.0029
3451.00,0.0029
3450.00,0.0029
3449.00,0.0029
3448.00,0.0029
3447.00,0.0029
3446.00,0.0029
3445.00,0.0029
3444.00,0.0029
3443.00,0.0029
3442.00,0.0029
3441.00,0.0029
3440.00,0.0029
3439.00,0.0029
3438.00,0.0029
3437.00,0.0029
3436.00,0.0029
3435.00,0.0029
3434.00,0.0030
3433.00,0.0030
3432.00,0.0030
3431.00,0.0030
3430.00,0.0030
3429.00,0.0030
3428.00,0.0030
3427.00,0.0029
3426.00,0.0029
3425.00,0.0029
3424.00,0.0029
3423.00,0.0029
3422.00,0.0029
3421.00,0.0029
3420.00,0.0029
3419.00,0.0029
3418.00,0.0029
3417.00,0.0029
3416.00,0.0029
3415.00,0.0029
3414.00,0.0029
3413.00,0.0029
3412.00,0.0029
3411.00,0.0029
3410.00,0.0029
3409.00,0.0029
3408.00,0.0029
3407.00,0.0029
3406.00,0.0029
3405.00,0.0029
3404.00,0.0029
3403.00,0.0029
3402.00,0.0029
3401.00,0.0029
3400.00,0.0029
3399.00,0.0029
3398.00,0.0029
3397.00,0.0029
3396.00,0.0029
3395.00,0.0029
3394.00,0.0029
3393.00,0.0029
3392.00,0.0029
3391.00,0.0029
3390.00,0.0029
3389.00,0.0029
3388.00,0.0029
3387.00,0.0029
3386.00,0.0029
3385.00,0.0029
3384.00,0.0030
3383.00,0.0030
3382.00,0.0030
3381.00,0.0029
3380.00,0.0029
3379.00,0.0029
3378.00,0.0029
3377.00,0.0029
3376.00,0.0029
3375.00,0.0029
3374.00,0.0029
3373.00,0.0029
3372.00,0.0029
3371.00,0.0029
3370.00,0.0029
3369.00,0.0029
3368.00,0.0029
3367.00,0.0029
3366.00,0.0029
3365.00,0.0029
3364.00,0.0029
3363.00,0.0029
3362.00,0.0029
3361.00,0.0029
3360.00,0.0029
3359.00,0.0029
3358.00,0.0029
3357.00,0.0029
3356.00,0.0029
3355.00,0.0029
3354.00,0.0029
3353.00,0.0029
3352.00,0.0029
3351.00,0.0029
3350.00,0.0029
3349.00,0.0029
3348.00,0.0029
3347.00,0.0029
3346.00,0.0028
3345.00,0.0028
3344.00,0.0028
3343.00,0.0028
3342.00,0.0028
3341.00,0.0028
3340.00,0.0028
3339.00,0.0028
3338.00,0.0028
3337.00,0.0028
3336.00,0.0028
3335.00,0.0029
3334.00,0.0029
3333.00,0.0029
3332.00,0.0029
3331.00,0.0029
3330.00,0.0029
3329.00,0.0028
3328.00,0.0028
3327.00,0.0028
3326.00,0.0028
3325.00,0.0028
3324.00,0.0028
3323.00,0.0028
3322.00,0.0028
3321.00,0.0028
3320.00,0.0028
3319.00,0.0028
3318.00,0.0028
3317.00,0.0029
3316.00,0.0029
3315.00,0.0029
3314.00,0.0029
3313.00,0.0029
3312.00,0.0029
3311.00,0.0028
3310.00,0.0028
3309.00,0.0028
3308.00,0.0027
3307.00,0.0027
3306.00,0.0027
3305.00,0.0027
3304.00,0.0027
3303.00,0.0027
3302.00,0.0027
3301.00,0.0027
3300.00,0.0027
3299.00,0.0027
3298.00,0.0027
3297.00,0.0027
3296.00,0.0027
3295.00,0.0027
3294.00,0.0027
3293.00,0.0028
3292.00,0.0028
3291.00,0.0028
3290.00,0.0028
3289.00,0.0028
3288.00,0.0028
3287.00,0.0027
3286.00,0.0027
3285.00,0.0027
3284.00,0.0027
3283.00,0.0027
3282.00,0.0027
3281.00,0.0028
3280.00,0.0028
3279.00,0.0028
3278.00,0.0028
3277.00,0.0027
3276.00,0.0027
3275.00,0.0027
3274.00,0.0027
3273.00,0.0027
3272.00,0.0027
3271.00,0.0027
3270.00,0.0027
3269.00,0.0027
3268.00,0.0028
3267.00,0.0028
3266.00,0.0027
3265.00,0.0027
3264.00,0.0027
3263.00,0.0027
3262.00,0.0027
3261.00,0.0027
3260.00,0.0027
3259.00,0.0027
3258.00,0.0027
3257.00,0.0027
3256.00,0.0027
3255.00,0.0027
3254.00,0.0027
3253.00,0.0027
3252.00,0.0027
3251.00,0.0026
3250.00,0.0026
3249.00,0.0026
3248.00,0.0026
3247.00,0.0026
3246.00,0.0026
3245.00,0.0026
3244.00,0.0026
3243.00,0.0026
3242.00,0.0026
3241.00,0.0026
3240.00,0.0026
3239.00,0.0026
3238.00,0.0026
3237.00,0.0026
3236.00,0.0026
3235.00,0.0026
3234.00,0.0026
3233.00,0.0026
3232.00,0.0026
3231.00,0.0026
3230.00,0.0026
3229.00,0.0025
3228.00,0.0025
3227.00,0.0026
3226.00,0.0026
3225.00,0.0026
3224.00,0.0026
3223.00,0.0026
3222.00,0.0026
3221.00,0.0026
3220.00,0.0026
3219.00,0.0026
3218.00,0.0026
3217.00,0.0026
3216.00,0.0027
3215.00,0.0027
3214.00,0.0027
3213.00,0.0027
3212.00,0.0027
3211.00,0.0027
3210.00,0.0027
3209.00,0.0027
3208.00,0.0027
3207.00,0.0027
3206.00,0.0028
3205.00,0.0028
3204.00,0.0028
3203.00,0.0028
3202.00,0.0028
3201.00,0.0028
3200.00,0.0027
3199.00,0.0027
3198.00,0.0027
3197.00,0.0027
3196.00,0.0027
3195.00,0.0027
3194.00,0.0027
3193.00,0.0027
3192.00,0.0027
3191.00,0.0027
3190.00,0.0027
3189.00,0.0027
3188.00,0.0026
3187.00,0.0026
3186.00,0.0026
3185.00,0.0025
3184.00,0.0025
3183.00,0.0025
3182.00,0.0025
3181.00,0.0025
3180.00,0.0025
3179.00,0.0025
3178.00,0.0025
3177.00,0.0025
3176.00,0.0025
3175.00,0.0025
3174.00,0.0025
3173.00,0.0025
3172.00,0.0026
3171.00,0.0026
3170.00,0.0026
3169.00,0.0026
3168.00,0.0026
3167.00,0.0027
3166.00,0.0027
3165.00,0.0027
3164.00,0.0027
3163.00,0.0027
3162.00,0.0027
3161.00,0.0027
3160.00,0.0026
3159.00,0.0026
3158.00,0.0026
3157.00,0.0025
3156.00,0.0025
3155.00,0.0025
3154.00,0.0025
3153.00,0.0025
3152.00,0.0025
3151.00,0.0025
3150.00,0.0025
3149.00,0.0024
3148.00,0.0025
3147.00,0.0025
3146.00,0.0025
3145.00,0.0025
3144.00,0.0025
3143.00,0.0025
3142.00,0.0025
3141.00,0.0025
3140.00,0.0025
3139.00,0.0025
3138.00,0.0025
3137.00,0.0025
3136.00,0.0025
3135.00,0.0025
3134.00,0.0025
3133.00,0.0025
3132.00,0.0025
3131.00,0.0025
3130.00,0.0025
3129.00,0.0025
3128.00,0.0025
3127.00,0.0025
3126.00,0.0025
3125.00,0.0025
3124.00,0.0025
3123.00,0.0026
3122.00,0.0026
3121.00,0.0027
3120.00,0.0027
3119.00,0.0028
3118.00,0.0028
3117.00,0.0028
3116.00,0.0029
3115.00,0.0029
3114.00,0.0031
3113.00,0.0032
3112.00,0.0034
3111.00,0.0036
3110.00,0.0038
3109.00,0.0041
3108.00,0.0043
3107.00,0.0045
3106.00,0.0047
3105.00,0.0048
3104.00,0.0049
3103.00,0.0050
3102.00,0.0050
3101.00,0.0049
3100.00,0.0048
3099.00,0.0048
3098.00,0.0047
3097.00,0.0047
3096.00,0.0047
3095.00,0.0048
3094.00,0.0050
3093.00,0.0052
3092.00,0.0055
3091.00,0.0059
3090.00,0.0065
3089.00,0.0071
3088.00,0.0079
3087.00,0.0086
3086.00,0.0094
3085.00,0.0100
3084.00,0.0105
3083.00,0.0109
3082.00,0.0109
3081.00,0.0107
3080.00,0.0104
3079.00,0.0099
3078.00,0.0094
3077.00,0.0090
3076.00,0.0086
3075.00,0.0084
3074.00,0.0082
3073.00,0.0082
3072.00,0.0083
3071.00,0.0085
3070.00,0.0088
3069.00,0.0093
3068.00,0.0098
3067.00,0.0105
3066.00,0.0113
3065.00,0.0121
3064.00,0.0129
3063.00,0.0137
3062.00,0.0143
3061.00,0.0148
3060.00,0.0149
3059.00,0.0148
3058.00,0.0144
3057.00,0.0138
3056.00,0.0130
3055.00,0.0122
3054.00,0.0114
3053.00,0.0107
3052.00,0.0100
3051.00,0.0095
3050.00,0.0090
3049.00,0.0086
3048.00,0.0083
3047.00,0.0080
3046.00,0.0079
3045.00,0.0078
3044.00,0.0079
3043.00,0.0081
3042.00,0.0083
3041.00,0.0087
3040.00,0.0091
3039.00,0.0097
3038.00,0.0103
3037.00,0.0111
3036.00,0.0121
3035.00,0.0133
3034.00,0.0147
3033.00,0.0164
3032.00,0.0182
3031.00,0.0201
3030.00,0.0222
3029.00,0.0241
3028.00,0.0258
3027.00,0.0271
3026.00,0.0278
3025.00,0.0278
3024.00,0.0271
3023.00,0.0257
3022.00,0.0238
3021.00,0.0215
3020.00,0.0192
3019.00,0.0170
3018.00,0.0149
3017.00,0.0132
3016.00,0.0117
3015.00,0.0106
3014.00,0.0096
3013.00,0.0089
3012.00,0.0083
3011.00,0.0079
3010.00,0.0077
3009.00,0.0075
3008.00,0.0075
3007.00,0.0076
3006.00,0.0078
3005.00,0.0080
3004.00,0.0082
3003.00,0.0085
3002.00,0.0086
3001.00,0.0085
3000.00,0.0084
2999.00,0.0080
2998.00,0.0076
2997.00,0.0071
2996.00,0.0067
2995.00,0.0062
2994.00,0.0058
2993.00,0.0055
2992.00,0.0054
2991.00,0.0052
2990.00,0.0052
2989.00,0.0051
2988.00,0.0051
2987.00,0.0050
2986.00,0.0050
2985.00,0.0050
2984.00,0.0050
2983.00,0.0050
2982.00,0.0050
2981.00,0.0050
2980.00,0.0050
2979.00,0.0051
2978.00,0.0051
2977.00,0.0052
2976.00,0.0052
2975.00,0.0053
2974.00,0.0053
2973.00,0.0054
2972.00,0.0054
2971.00,0.0055
2970.00,0.0057
2969.00,0.0058
2968.00,0.0059
2967.00,0.0061
2966.00,0.0062
2965.00,0.0064
2964.00,0.0066
2963.00,0.0068
2962.00,0.0070
2961.00,0.0072
2960.00,0.0074
2959.00,0.0076
2958.00,0.0079
2957.00,0.0082
2956.00,0.0085
2955.00,0.0088
2954.00,0.0091
2953.00,0.0095
2952.00,0.0099
2951.00,0.0103
2950.00,0.0108
2949.00,0.0113
2948.00,0.0118
2947.00,0.0124
2946.00,0.0130
2945.00,0.0137
2944.00,0.0144
2943.00,0.0152
2942.00,0.0160
2941.00,0.0169
2940.00,0.0178
2939.00,0.0188
2938.00,0.0199
2937.00,0.0210
2936.00,0.0221
2935.00,0.0233
2934.00,0.0245
2933.00,0.0257
2932.00,0.0270
2931.00,0.0281
2930.00,0.0293
2929.00,0.0303
2928.00,0.0313
2927.00,0.0321
2926.00,0.0328
2925.00,0.0334
2924.00,0.0337
2923.00,0.0340
2922.00,0.0341
2921.00,0.0340
2920.00,0.0338
2919.00,0.0335
2918.00,0.0330
2917.00,0.0325
2916.00,0.0320
2915.00,0.0313
2914.00,0.0306
2913.00,0.0298
2912.00,0.0290
2911.00,0.0282
2910.00,0.0274
2909.00,0.0266
2908.00,0.0258
2907.00,0.0249
2906.00,0.0241
2905.00,0.0232
2904.00,0.0223
2903.00,0.0215
2902.00,0.0207
2901.00,0.0198
2900.00,0.0190
2899.00,0.0182
2898.00,0.0175
2897.00,0.0168
2896.00,0.0161
2895.00,0.0156
2894.00,0.0151
2893.00,0.0146
2892.00,0.0142
2891.00,0.0138
2890.00,0.0134
2889.00,0.0131
2888.00,0.0128
2887.00,0.0125
2886.00,0.0122
2885.00,0.0119
2884.00,0.0116
2883.00,0.0114
2882.00,0.0112
2881.00,0.0109
2880.00,0.0107
2879.00,0.0105
2878.00,0.0103
2877.00,0.0100
2876.00,0.0098
2875.00,0.0096
2874.00,0.0095
2873.00,0.0094
2872.00,0.0093
2871.00,0.0092
2870.00,0.0092
2869.00,0.0092
2868.00,0.0092
2867.00,0.0093
2866.00,0.0094
2865.00,0.0096
2864.00,0.0098
2863.00,0.0101
2862.00,0.0105
2861.00,0.0109
2860.00,0.0113
2859.00,0.0118
2858.00,0.0123
2857.00,0.0129
2856.00,0.0134
2855.00,0.0139
2854.00,0.0143
2853.00,0.0147
2852.00,0.0150
2851.00,0.0152
2850.00,0.0153
2849.00,0.0152
2848.00,0.0151
2847.00,0.0148
2846.00,0.0144
2845.00,0.0139
2844.00,0.0132
2843.00,0.0124
2842.00,0.0116
2841.00,0.0107
2840.00,0.0099
2839.00,0.0091
2838.00,0.0083
2837.00,0.0076
2836.00,0.0070
2835.00,0.0065
2834.00,0.0061
2833.00,0.0058
2832.00,0.0055
2831.00,0.0053
2830.00,0.0051
2829.00,0.0049
2828.00,0.0048
2827.00,0.0046
2826.00,0.0045
2825.00,0.0044
2824.00,0.0043
2823.00,0.0043
2822.00,0.0042
2821.00,0.0041
2820.00,0.0041
2819.00,0.0041
2818.00,0.0040
2817.00,0.0040
2816.00,0.0040
2815.00,0.0040
2814.00,0.0039
2813.00,0.0039
2812.00,0.0039
2811.00,0.0039
2810.00,0.0038
2809.00,0.0038
2808.00,0.0038
2807.00,0.0038
2806.00,0.0037
2805.00,0.0037
2804.00,0.0037
2803.00,0.0036
2802.00,0.0036
2801.00,0.0036
2800.00,0.0036
2799.00,0.0035
2798.00,0.0035
2797.00,0.0035
2796.00,0.0035
2795.00,0.0034
2794.00,0.0034
2793.00,0.0034
2792.00,0.0034
2791.00,0.0033
2790.00,0.0033
2789.00,0.0033
2788.00,0.0033
2787.00,0.0033
2786.00,0.0033
2785.00,0.0033
2784.00,0.0033
2783.00,0.0033
2782.00,0.0033
2781.00,0.0033
2780.00,0.0033
2779.00,0.0032
2778.00,0.0032
2777.00,0.0032
2776.00,0.0032
2775.00,0.0032
2774.00,0.0032
2773.00,0.0031
2772.00,0.0031
2771.00,0.0031
2770.00,0.0031
2769.00,0.0031
2768.00,0.0030
2767.00,0.0030
2766.00,0.0030
2765.00,0.0030
2764.00,0.0030
2763.00,0.0030
2762.00,0.0030
2761.00,0.0029
2760.00,0.0029
2759.00,0.0029
2758.00,0.0029
2757.00,0.0029
2756.00,0.0029
2755.00,0.0029
2754.00,0.0029
2753.00,0.0029
2752.00,0.0029
2751.00,0.0029
2750.00,0.0029
2749.00,0.0029
2748.00,0.0029
2747.00,0.0029
2746.00,0.0029
2745.00,0.0029
2744.00,0.0029
2743.00,0.0029
2742.00,0.0029
2741.00,0.0029
2740.00,0.0029
2739.00,0.0029
2738.00,0.0028
2737.00,0.0029
2736.00,0.0029
2735.00,0.0029
2734.00,0.0029
2733.00,0.0029
2732.00,0.0029
2731.00,0.0029
2730.00,0.0029
2729.00,0.0030
2728.00,0.0029
2727.00,0.0029
2726.00,0.0029
2725.00,0.0029
2724.00,0.0029
2723.00,0.0029
2722.00,0.0029
2721.00,0.0029
2720.00,0.0029
2719.00,0.0029
2718.00,0.0029
2717.00,0.0029
2716.00,0.0029
2715.00,0.0029
2714.00,0.0029
2713.00,0.0029
2712.00,0.0029
2711.00,0.0029
2710.00,0.0028
2709.00,0.0028
2708.00,0.0028
2707.00,0.0028
2706.00,0.0028
2705.00,0.0028
2704.00,0.0029
2703.00,0.0029
2702.00,0.0029
2701.00,0.0029
2700.00,0.0029
2699.00,0.0029
2698.00,0.0029
2697.00,0.0029
2696.00,0.0029
2695.00,0.0029
2694.00,0.0028
2693.00,0.0028
2692.00,0.0028
2691.00,0.0028
2690.00,0.0028
2689.00,0.0029
2688.00,0.0029
2687.00,0.0029
2686.00,0.0029
2685.00,0.0028
2684.00,0.0028
2683.00,0.0028
2682.00,0.0028
2681.00,0.0028
2680.00,0.0028
2679.00,0.0028
2678.00,0.0028
2677.00,0.0028
2676.00,0.0028
2675.00,0.0028
2674.00,0.0028
2673.00,0.0028
2672.00,0.0028
2671.00,0.0028
2670.00,0.0028
2669.00,0.0028
2668.00,0.0029
2667.00,0.0029
2666.00,0.0029
2665.00,0.0029
2664.00,0.0030
2663.00,0.0030
2662.00,0.0031
2661.00,0.0031
2660.00,0.0031
2659.00,0.0031
2658.00,0.0032
2657.00,0.0032
2656.00,0.0032
2655.00,0.0032
2654.00,0.0032
2653.00,0.0032
2652.00,0.0032
2651.00,0.0032
2650.00,0.0032
2649.00,0.0032
2648.00,0.0032
2647.00,0.0032
2646.00,0.0032
2645.00,0.0032
2644.00,0.0032
2643.00,0.0032
2642.00,0.0032
2641.00,0.0032
2640.00,0.0032
2639.00,0.0032
2638.00,0.0032
2637.00,0.0032
2636.00,0.0032
2635.00,0.0032
2634.00,0.0033
2633.00,0.0033
2632.00,0.0033
2631.00,0.0033
2630.00,0.0033
2629.00,0.0032
2628.00,0.0032
2627.00,0.0032
2626.00,0.0031
2625.00,0.0031
2624.00,0.0031
2623.00,0.0031
2622.00,0.0031
2621.00,0.0031
2620.00,0.0030
2619.00,0.0030
2618.00,0.0030
2617.00,0.0030
2616.00,0.0030
2615.00,0.0029
2614.00,0.0029
2613.00,0.0029
2612.00,0.0029
2611.00,0.0030
2610.00,0.0030
2609.00,0.0030
2608.00,0.0030
2607.00,0.0030
2606.00,0.0030
2605.00,0.0030
2604.00,0.0030
2603.00,0.0030
2602.00,0.0030
2601.00,0.0030
2600.00,0.0030
2599.00,0.0030
2598.00,0.0029
2597.00,0.0029
2596.00,0.0028
2595.00,0.0028
2594.00,0.0027
2593.00,0.0027
2592.00,0.0027
2591.00,0.0027
2590.00,0.0027
2589.00,0.0027
2588.00,0.0027
2587.00,0.0027
2586.00,0.0027
2585.00,0.0027
2584.00,0.0028
2583.00,0.0028
2582.00,0.0028
2581.00,0.0028
2580.00,0.0027
2579.00,0.0027
2578.00,0.0026
2577.00,0.0026
2576.00,0.0026
2575.00,0.0026
2574.00,0.0026
2573.00,0.0026
2572.00,0.0026
2571.00,0.0026
2570.00,0.0026
2569.00,0.0025
2568.00,0.0025
2567.00,0.0025
2566.00,0.0025
2565.00,0.0025
2564.00,0.0025
2563.00,0.0025
2562.00,0.0025
2561.00,0.0025
2560.00,0.0025
2559.00,0.0025
2558.00,0.0025
2557.00,0.0025
2556.00,0.0025
2555.00,0.0025
2554.00,0.0025
2553.00,0.0025
2552.00,0.0025
2551.00,0.0024
2550.00,0.0024
2549.00,0.0024
2548.00,0.0024
2547.00,0.0024
2546.00,0.0024
2545.00,0.0024
2544.00,0.0024
2543.00,0.0023
2542.00,0.0023
2541.00,0.0024
2540.00,0.0024
2539.00,0.0024
2538.00,0.0024
2537.00,0.0024
2536.00,0.0024
2535.00,0.0024
2534.00,0.0024
2533.00,0.0024
2532.00,0.0024
2531.00,0.0023
2530.00,0.0023
2529.00,0.0023
2528.00,0.0023
2527.00,0.0023
2526.00,0.0023
2525.00,0.0024
2524.00,0.0024
2523.00,0.0024
2522.00,0.0024
2521.00,0.0023
2520.00,0.0023
2519.00,0.0023
2518.00,0.0023
2517.00,0.0023
2516.00,0.0023
2515.00,0.0023
2514.00,0.0023
2513.00,0.0023
2512.00,0.0023
2511.00,0.0023
2510.00,0.0023
2509.00,0.0023
2508.00,0.0023
2507.00,0.0023
2506.00,0.0023
2505.00,0.0023
2504.00,0.0023
2503.00,0.0023
2502.00,0.0023
2501.00,0.0023
2500.00,0.0023
2499.00,0.0023
2498.00,0.0023
2497.00,0.0023
2496.00,0.0023
2495.00,0.0022
2494.00,0.0022
2493.00,0.0022
2492.00,0.0022
2491.00,0.0022
2490.00,0.0022
2489.00,0.0022
2488.00,0.0021
2487.00,0.0021
2486.00,0.0021
2485.00,0.0021
2484.00,0.0021
2483.00,0.0021
2482.00,0.0021
2481.00,0.0021
2480.00,0.0021
2479.00,0.0021
2478.00,0.0021
2477.00,0.0021
2476.00,0.0020
2475.00,0.0020
2474.00,0.0020
2473.00,0.0020
2472.00,0.0020
2471.00,0.0020
2470.00,0.0020
2469.00,0.0020
2468.00,0.0020
2467.00,0.0020
2466.00,0.0020
2465.00,0.0021
2464.00,0.0021
2463.00,0.0021
2462.00,0.0021
2461.00,0.0021
2460.00,0.0021
2459.00,0.0022
2458.00,0.0022
2457.00,0.0022
2456.00,0.0022
2455.00,0.0022
2454.00,0.0022
2453.00,0.0022
2452.00,0.0022
2451.00,0.0022
2450.00,0.0021
2449.00,0.0021
2448.00,0.0020
2447.00,0.0020
2446.00,0.0020
2445.00,0.0020
2444.00,0.0020
2443.00,0.0020
2442.00,0.0020
2441.00,0.0020
2440.00,0.0020
2439.00,0.0020
2438.00,0.0019
2437.00,0.0019
2436.00,0.0019
2435.00,0.0019
2434.00,0.0020
2433.00,0.0020
2432.00,0.0020
2431.00,0.0019
2430.00,0.0019
2429.00,0.0019
2428.00,0.0019
2427.00,0.0019
2426.00,0.0019
2425.00,0.0018
2424.00,0.0018
2423.00,0.0018
2422.00,0.0018
2421.00,0.0018
2420.00,0.0018
2419.00,0.0017
2418.00,0.0017
2417.00,0.0017
2416.00,0.0017
2415.00,0.0017
2414.00,0.0017
2413.00,0.0017
2412.00,0.0017
2411.00,0.0017
2410.00,0.0017
2409.00,0.0017
2408.00,0.0017
2407.00,0.0017
2406.00,0.0017
2405.00,0.0017
2404.00,0.0017
2403.00,0.0017
2402.00,0.0017
2401.00,0.0017
2400.00,0.0016
2399.00,0.0016
2398.00,0.0016
2397.00,0.0016
2396.00,0.0016
2395.00,0.0016
2394.00,0.0016
2393.00,0.0016
2392.00,0.0016
2391.00,0.0016
2390.00,0.0016
2389.00,0.0016
2388.00,0.0017
2387.00,0.0017
2386.00,0.0017
2385.00,0.0016
2384.00,0.0016
2383.00,0.0016
2382.00,0.0016
2381.00,0.0016
2380.00,0.0016
2379.00,0.0016
2378.00,0.0016
2377.00,0.0016
2376.00,0.0016
2375.00,0.0017
2374.00,0.0017
2373.00,0.0016
2372.00,0.0016
2371.00,0.0016
2370.00,0.0015
2369.00,0.0015
2368.00,0.0015
2367.00,0.0015
2366.00,0.0016
2365.00,0.0016
2364.00,0.0017
2363.00,0.0018
2362.00,0.0018
2361.00,0.0018
2360.00,0.0018
2359.00,0.0018
2358.00,0.0019
2357.00,0.0019
2356.00,0.0019
2355.00,0.0019
2354.00,0.0020
2353.00,0.0020
2352.00,0.0020
2351.00,0.0020
2350.00,0.0020
2349.00,0.0020
2348.00,0.0020
2347.00,0.0020
2346.00,0.0021
2345.00,0.0021
2344.00,0.0022
2343.00,0.0022
2342.00,0.0023
2341.00,0.0023
2340.00,0.0023
2339.00,0.0024
2338.00,0.0024
2337.00,0.0024
2336.00,0.0025
2335.00,0.0025
2334.00,0.0024
2333.00,0.0024
2332.00,0.0023
2331.00,0.0023
2330.00,0.0023
2329.00,0.0024
2328.00,0.0027
2327.00,0.0030
2326.00,0.0033
2325.00,0.0034
2324.00,0.0034
2323.00,0.0032
2322.00,0.0031
2321.00,0.0030
2320.00,0.0029
2319.00,0.0029
2318.00,0.0028
2317.00,0.0028
2316.00,0.0028
2315.00,0.0028
2314.00,0.0028
2313.00,0.0028
2312.00,0.0028
2311.00,0.0027
2310.00,0.0026
2309.00,0.0026
2308.00,0.0025
2307.00,0.0025
2306.00,0.0024
2305.00,0.0024
2304.00,0.0024
2303.00,0.0024
2302.00,0.0023
2301.00,0.0023
2300.00,0.0024
2299.00,0.0024
2298.00,0.0024
2297.00,0.0024
2296.00,0.0025
2295.00,0.0025
2294.00,0.0025
2293.00,0.0026
2292.00,0.0027
2291.00,0.0027
2290.00,0.0027
2289.00,0.0028
2288.00,0.0028
2287.00,0.0028
2286.00,0.0028
2285.00,0.0027
2284.00,0.0026
2283.00,0.0025
2282.00,0.0025
2281.00,0.0024
2280.00,0.0024
2279.00,0.0024
2278.00,0.0023
2277.00,0.0023
2276.00,0.0022
2275.00,0.0021
2274.00,0.0021
2273.00,0.0021
2272.00,0.0021
2271.00,0.0021
2270.00,0.0021
2269.00,0.0020
2268.00,0.0021
2267.00,0.0021
2266.00,0.0020
2265.00,0.0021
2264.00,0.0021
2263.00,0.0021
2262.00,0.0021
2261.00,0.0022
2260.00,0.0022
2259.00,0.0021
2258.00,0.0021
2257.00,0.0020
2256.00,0.0019
2255.00,0.0018
2254.00,0.0017
2253.00,0.0018
2252.00,0.0019
2251.00,0.0019
2250.00,0.0019
2249.00,0.0019
2248.00,0.0019
2247.00,0.0020
2246.00,0.0020
2245.00,0.0020
2244.00,0.0020
2243.00,0.0020
2242.00,0.0020
2241.00,0.0020
2240.00,0.0020
2239.00,0.0020
2238.00,0.0019
2237.00,0.0019
2236.00,0.0020
2235.00,0.0019
2234.00,0.0019
2233.00,0.0018
2232.00,0.0018
2231.00,0.0018
2230.00,0.0018
2229.00,0.0018
2228.00,0.0018
2227.00,0.0017
2226.00,0.0016
2225.00,0.0016
2224.00,0.0016
2223.00,0.0016
2222.00,0.0016
2221.00,0.0016
2220.00,0.0017
2219.00,0.0017
2218.00,0.0016
2217.00,0.0016
2216.00,0.0017
2215.00,0.0017
2214.00,0.0017
2213.00,0.0017
2212.00,0.0017
2211.00,0.0016
2210.00,0.0015
2209.00,0.0015
2208.00,0.0015
2207.00,0.0015
2206.00,0.0015
2205.00,0.0015
2204.00,0.0016
2203.00,0.0017
2202.00,0.0017
2201.00,0.0017
2200.00,0.0018
2199.00,0.0018
2198.00,0.0017
2197.00,0.0017
2196.00,0.0018
2195.00,0.0018
2194.00,0.0018
2193.00,0.0019
2192.00,0.0019
2191.00,0.0019
2190.00,0.0018
2189.00,0.0019
2188.00,0.0020
2187.00,0.0020
2186.00,0.0018
2185.00,0.0015
2184.00,0.0013
2183.00,0.0011
2182.00,0.0010
2181.00,0.0011
2180.00,0.0011
2179.00,0.0012
2178.00,0.0011
2177.00,0.0012
2176.00,0.0013
2175.00,0.0013
2174.00,0.0012
2173.00,0.0014
2172.00,0.0016
2171.00,0.0018
2170.00,0.0019
2169.00,0.0020
2168.00,0.0021
2167.00,0.0022
2166.00,0.0022
2165.00,0.0022
2164.00,0.0024
2163.00,0.0025
2162.00,0.0022
2161.00,0.0014
2160.00,0.0004
2159.00,-0.0007
2158.00,-0.0014
2157.00,-0.0014
2156.00,-0.0011
2155.00,-0.0009
2154.00,-0.0008
2153.00,-0.0006
2152.00,-0.0004
2151.00,-0.0003
2150.00,-0.0003
2149.00,-0.0002
2148.00,-0.0001
2147.00,-0.0001
2146.00,-0.0002
2145.00,-0.0002
2144.00,-0.0002
2143.00,-0.0003
2142.00,-0.0003
2141.00,-0.0002
2140.00,-0.0001
2139.00,-0.0001
2138.00,-0.0002
2137.00,-0.0004
2136.00,-0.0005
2135.00,-0.0007
2134.00,-0.0008
2133.00,-0.0007
2132.00,-0.0005
2131.00,-0.0002
2130.00,-0.0000
2129.00,0.0002
2128.00,0.0003
2127.00,0.0004
2126.00,0.0005
2125.00,0.0006
2124.00,0.0007
2123.00,0.0008
2122.00,0.0008
2121.00,0.0008
2120.00,0.0009
2119.00,0.0009
2118.00,0.0009
2117.00,0.0011
2116.00,0.0012
2115.00,0.0013
2114.00,0.0013
2113.00,0.0013
2112.00,0.0014
2111.00,0.0014
2110.00,0.0013
2109.00,0.0013
2108.00,0.0013
2107.00,0.0012
2106.00,0.0012
2105.00,0.0012
2104.00,0.0012
2103.00,0.0012
2102.00,0.0012
2101.00,0.0012
2100.00,0.0012
2099.00,0.0011
2098.00,0.0010
2097.00,0.0008
2096.00,0.0008
2095.00,0.0007
2094.00,0.0008
2093.00,0.0010
2092.00,0.0011
2091.00,0.0012
2090.00,0.0011
2089.00,0.0012
2088.00,0.0012
2087.00,0.0012
2086.00,0.0013
2085.00,0.0013
2084.00,0.0014
2083.00,0.0013
2082.00,0.0012
2081.00,0.0013
2080.00,0.0014
2079.00,0.0014
2078.00,0.0014
2077.00,0.0014
2076.00,0.0015
2075.00,0.0014
2074.00,0.0014
2073.00,0.0013
2072.00,0.0013
2071.00,0.0013
2070.00,0.0012
2069.00,0.0012
2068.00,0.0013
2067.00,0.0013
2066.00,0.0012
2065.00,0.0011
2064.00,0.0010
2063.00,0.0009
2062.00,0.0008
2061.00,0.0008
2060.00,0.0009
2059.00,0.0010
2058.00,0.0010
2057.00,0.0010
2056.00,0.0010
2055.00,0.0009
2054.00,0.0010
2053.00,0.0014
2052.00,0.0018
2051.00,0.0019
2050.00,0.0017
2049.00,0.0015
2048.00,0.0014
2047.00,0.0012
2046.00,0.0010
2045.00,0.0011
2044.00,0.0012
2043.00,0.0012
2042.00,0.0010
2041.00,0.0010
2040.00,0.0012
2039.00,0.0013
2038.00,0.0014
2037.00,0.0015
2036.00,0.0015
2035.00,0.0012
2034.00,0.0009
2033.00,0.0008
2032.00,0.0009
2031.00,0.0010
2030.00,0.0009
2029.00,0.0008
2028.00,0.0008
2027.00,0.0007
2026.00,0.0005
2025.00,0.0004
2024.00,0.0006
2023.00,0.0005
2022.00,0.0005
2021.00,0.0005
2020.00,0.0008
2019.00,0.0008
2018.00,0.0007
2017.00,0.0007
2016.00,0.0007
2015.00,0.0007
2014.00,0.0006
2013.00,0.0007
2012.00,0.0008
2011.00,0.0009
2010.00,0.0007
2009.00,0.0006
2008.00,0.0005
2007.00,0.0003
2006.00,0.0000
2005.00,-0.0000
2004.00,0.0001
2003.00,0.0002
2002.00,0.0002
2001.00,0.0004
2000.00,0.0007
1999.00,0.0008
1998.00,0.0007
1997.00,0.0008
1996.00,0.0009
1995.00,0.0011
1994.00,0.0011
1993.00,0.0012
1992.00,0.0014
1991.00,0.0014
1990.00,0.0014
1989.00,0.0014
1988.00,0.0015
1987.00,0.0016
1986.00,0.0016
1985.00,0.0018
1984.00,0.0021
1983.00,0.0023
1982.00,0.0023
1981.00,0.0023
1980.00,0.0022
1979.00,0.0017
1978.00,0.0012
1977.00,0.0009
1976.00,0.0009
1975.00,0.0008
1974.00,0.0007
1973.00,0.0007
1972.00,0.0009
1971.00,0.0010
1970.00,0.0011
1969.00,0.0013
1968.00,0.0015
1967.00,0.0015
1966.00,0.0015
1965.00,0.0016
1964.00,0.0018
1963.00,0.0018
1962.00,0.0018
1961.00,0.0019
1960.00,0.0020
1959.00,0.0020
1958.00,0.0020
1957.00,0.0022
1956.00,0.0024
1955.00,0.0026
1954.00,0.0027
1953.00,0.0029
1952.00,0.0031
1951.00,0.0032
1950.00,0.0033
1949.00,0.0036
1948.00,0.0038
1947.00,0.0040
1946.00,0.0041
1945.00,0.0042
1944.00,0.0043
1943.00,0.0043
1942.00,0.0042
1941.00,0.0043
1940.00,0.0042
1939.00,0.0040
1938.00,0.0038
1937.00,0.0036
1936.00,0.0034
1935.00,0.0031
1934.00,0.0028
1933.00,0.0028
1932.00,0.0026
1931.00,0.0024
1930.00,0.0021
1929.00,0.0020
1928.00,0.0020
1927.00,0.0017
1926.00,0.0016
1925.00,0.0016
1924.00,0.0017
1923.00,0.0017
1922.00,0.0015
1921.00,0.0016
1920.00,0.0016
1919.00,0.0015
1918.00,0.0013
1917.00,0.0014
1916.00,0.0014
1915.00,0.0014
1914.00,0.0013
1913.00,0.0013
1912.00,0.0014
1911.00,0.0013
1910.00,0.0012
1909.00,0.0013
1908.00,0.0015
1907.00,0.0014
1906.00,0.0014
1905.00,0.0015
1904.00,0.0016
1903.00,0.0016
1902.00,0.0015
1901.00,0.0017
1900.00,0.0019
1899.00,0.0019
1898.00,0.0018
1897.00,0.0020
1896.00,0.0022
1895.00,0.0022
1894.00,0.0022
1893.00,0.0023
1892.00,0.0026
1891.00,0.0028
1890.00,0.0028
1889.00,0.0029
1888.00,0.0030
1887.00,0.0030
1886.00,0.0030
1885.00,0.0031
1884.00,0.0034
1883.00,0.0035
1882.00,0.0034
1881.00,0.0035
1880.00,0.0037
1879.00,0.0037
1878.00,0.0036
1877.00,0.0036
1876.00,0.0038
1875.00,0.0038
1874.00,0.0037
1873.00,0.0038
1872.00,0.0040
1871.00,0.0041
1870.00,0.0041
1869.00,0.0041
1868.00,0.0043
1867.00,0.0042
1866.00,0.0039
1865.00,0.0037
1864.00,0.0037
1863.00,0.0036
1862.00,0.0033
1861.00,0.0030
1860.00,0.0030
1859.00,0.0028
1858.00,0.0025
1857.00,0.0023
1856.00,0.0023
1855.00,0.0022
1854.00,0.0020
1853.00,0.0019
1852.00,0.0019
1851.00,0.0018
1850.00,0.0017
1849.00,0.0016
1848.00,0.0016
1847.00,0.0016
1846.00,0.0015
1845.00,0.0015
1844.00,0.0016
1843.00,0.0016
1842.00,0.0014
1841.00,0.0014
1840.00,0.0015
1839.00,0.0016
1838.00,0.0016
1837.00,0.0016
1836.00,0.0017
1835.00,0.0016
1834.00,0.0016
1833.00,0.0016
1832.00,0.0018
1831.00,0.0020
1830.00,0.0020
1829.00,0.0021
1828.00,0.0022
1827.00,0.0023
1826.00,0.0023
1825.00,0.0024
1824.00,0.0027
1823.00,0.0027
1822.00,0.0026
1821.00,0.0026
1820.00,0.0028
1819.00,0.0029
1818.00,0.0028
1817.00,0.0028
1816.00,0.0031
1815.00,0.0033
1814.00,0.0033
1813.00,0.0035
1812.00,0.0038
1811.00,0.0041
1810.00,0.0041
1809.00,0.0041
1808.00,0.0043
1807.00,0.0045
1806.00,0.0044
1805.00,0.0044
1804.00,0.0047
1803.00,0.0049
1802.00,0.0048
1801.00,0.0047
1800.00,0.0047
1799.00,0.0047
1798.00,0.0045
1797.00,0.0042
1796.00,0.0042
1795.00,0.0042
1794.00,0.0038
1793.00,0.0035
1792.00,0.0035
1791.00,0.0034
1790.00,0.0030
1789.00,0.0027
1788.00,0.0027
1787.00,0.0028
1786.00,0.0027
1785.00,0.0025
1784.00,0.0025
1783.00,0.0027
1782.00,0.0027
1781.00,0.0025
1780.00,0.0026
1779.00,0.0028
1778.00,0.0027
1777.00,0.0025
1776.00,0.0026
1775.00,0.0029
1774.00,0.0029
1773.00,0.0027
1772.00,0.0027
1771.00,0.0030
1770.00,0.0029
1769.00,0.0027
1768.00,0.0027
1767.00,0.0029
1766.00,0.0030
1765.00,0.0028
1764.00,0.0028
1763.00,0.0032
1762.00,0.0035
1761.00,0.0033
1760.00,0.0033
1759.00,0.0036
1758.00,0.0039
1757.00,0.0040
1756.00,0.0039
1755.00,0.0041
1754.00,0.0044
1753.00,0.0045
1752.00,0.0045
1751.00,0.0048
1750.00,0.0053
1749.00,0.0055
1748.00,0.0054
1747.00,0.0055
1746.00,0.0059
1745.00,0.0060
1744.00,0.0059
1743.00,0.0060
1742.00,0.0062
1741.00,0.0063
1740.00,0.0061
1739.00,0.0060
1738.00,0.0061
1737.00,0.0063
1736.00,0.0061
1735.00,0.0060
1734.00,0.0061
1733.00,0.0063
1732.00,0.0061
1731.00,0.0058
1730.00,0.0057
1729.00,0.0059
1728.00,0.0058
1727.00,0.0054
1726.00,0.0052
1725.00,0.0054
1724.00,0.0055
1723.00,0.0052
1722.00,0.0048
1721.00,0.0049
1720.00,0.0051
1719.00,0.0049
1718.00,0.0046
1717.00,0.0047
1716.00,0.0050
1715.00,0.0048
1714.00,0.0043
1713.00,0.0042
1712.00,0.0045
1711.00,0.0046
1710.00,0.0042
1709.00,0.0041
1708.00,0.0044
1707.00,0.0047
1706.00,0.0045
1705.00,0.0043
1704.00,0.0045
1703.00,0.0047
1702.00,0.0044
1701.00,0.0039
1700.00,0.0043
1699.00,0.0049
1698.00,0.0048
1697.00,0.0046
1696.00,0.0049
1695.00,0.0055
1694.00,0.0055
1693.00,0.0052
1692.00,0.0054
1691.00,0.0060
1690.00,0.0064
1689.00,0.0062
1688.00,0.0061
1687.00,0.0066
1686.00,0.0070
1685.00,0.0068
1684.00,0.0067
1683.00,0.0071
1682.00,0.0074
1681.00,0.0073
1680.00,0.0070
1679.00,0.0072
1678.00,0.0073
1677.00,0.0072
1676.00,0.0068
1675.00,0.0069
1674.00,0.0073
1673.00,0.0072
1672.00,0.0070
1671.00,0.0071
1670.00,0.0075
1669.00,0.0076
1668.00,0.0074
1667.00,0.0072
1666.00,0.0073
1665.00,0.0074
1664.00,0.0072
1663.00,0.0071
1662.00,0.0071
1661.00,0.0071
1660.00,0.0069
1659.00,0.0067
1658.00,0.0067
1657.00,0.0066
1656.00,0.0064
1655.00,0.0062
1654.00,0.0062
1653.00,0.0062
1652.00,0.0059
1651.00,0.0057
1650.00,0.0056
1649.00,0.0056
1648.00,0.0057
1647.00,0.0056
1646.00,0.0054
1645.00,0.0051
1644.00,0.0050
1643.00,0.0050
1642.00,0.0049
1641.00,0.0048
1640.00,0.0047
1639.00,0.0046
1638.00,0.0046
1637.00,0.0045
1636.00,0.0044
1635.00,0.0043
1634.00,0.0043
1633.00,0.0042
1632.00,0.0041
1631.00,0.0042
1630.00,0.0043
1629.00,0.0043
1628.00,0.0042
1627.00,0.0042
1626.00,0.0043
1625.00,0.0043
1624.00,0.0043
1623.00,0.0044
1622.00,0.0046
1621.00,0.0046
1620.00,0.0044
1619.00,0.0045
1618.00,0.0048
1617.00,0.0050
1616.00,0.0050
1615.00,0.0051
1614.00,0.0054
1613.00,0.0059
1612.00,0.0063
1611.00,0.0069
1610.00,0.0081
1609.00,0.0096
1608.00,0.0113
1607.00,0.0136
1606.00,0.0163
1605.00,0.0194
1604.00,0.0223
1603.00,0.0249
1602.00,0.0267
1601.00,0.0273
1600.00,0.0264
1599.00,0.0243
1598.00,0.0217
1597.00,0.0189
1596.00,0.0163
1595.00,0.0141
1594.00,0.0124
1593.00,0.0111
1592.00,0.0101
1591.00,0.0092
1590.00,0.0087
1589.00,0.0085
1588.00,0.0086
1587.00,0.0091
1586.00,0.0099
1585.00,0.0109
1584.00,0.0116
1583.00,0.0117
1582.00,0.0112
1581.00,0.0102
1580.00,0.0089
1579.00,0.0077
1578.00,0.0068
1577.00,0.0062
1576.00,0.0055
1575.00,0.0048
1574.00,0.0045
1573.00,0.0044
1572.00,0.0041
1571.00,0.0039
1570.00,0.0039
1569.00,0.0039
1568.00,0.0036
1567.00,0.0034
1566.00,0.0035
1565.00,0.0036
1564.00,0.0034
1563.00,0.0032
1562.00,0.0031
1561.00,0.0033
1560.00,0.0033
1559.00,0.0030
1558.00,0.0030
1557.00,0.0033
1556.00,0.0034
1555.00,0.0033
1554.00,0.0035
1553.00,0.0039
1552.00,0.0041
1551.00,0.0041
1550.00,0.0042
1549.00,0.0046
1548.00,0.0046
1547.00,0.0044
1546.00,0.0044
1545.00,0.0049
1544.00,0.0051
1543.00,0.0047
1542.00,0.0044
1541.00,0.0048
1540.00,0.0051
1539.00,0.0046
1538.00,0.0040
1537.00,0.0042
1536.00,0.0045
1535.00,0.0043
1534.00,0.0039
1533.00,0.0039
1532.00,0.0041
1531.00,0.0038
1530.00,0.0034
1529.00,0.0034
1528.00,0.0038
1527.00,0.0038
1526.00,0.0033
1525.00,0.0031
1524.00,0.0034
1523.00,0.0035
1522.00,0.0032
1521.00,0.0031
1520.00,0.0034
1519.00,0.0036
1518.00,0.0034
1517.00,0.0034
1516.00,0.0037
1515.00,0.0038
1514.00,0.0036
1513.00,0.0035
1512.00,0.0039
1511.00,0.0042
1510.00,0.0042
1509.00,0.0042
1508.00,0.0047
1507.00,0.0053
1506.00,0.0053
1505.00,0.0054
1504.00,0.0060
1503.00,0.0069
1502.00,0.0079
1501.00,0.0093
1500.00,0.0115
1499.00,0.0151
1498.00,0.0205
1497.00,0.0290
1496.00,0.0402
1495.00,0.0516
1494.00,0.0602
1493.00,0.0648
1492.00,0.0645
1491.00,0.0587
1490.00,0.0490
1489.00,0.0388
1488.00,0.0309
1487.00,0.0250
1486.00,0.0205
1485.00,0.0172
1484.00,0.0148
1483.00,0.0129
1482.00,0.0112
1481.00,0.0099
1480.00,0.0092
1479.00,0.0086
1478.00,0.0080
1477.00,0.0075
1476.00,0.0076
1475.00,0.0076
1474.00,0.0073
1473.00,0.0070
1472.00,0.0073
1471.00,0.0076
1470.00,0.0074
1469.00,0.0074
1468.00,0.0079
1467.00,0.0084
1466.00,0.0085
1465.00,0.0087
1464.00,0.0093
1463.00,0.0101
1462.00,0.0106
1461.00,0.0112
1460.00,0.0126
1459.00,0.0153
1458.00,0.0201
1457.00,0.0281
1456.00,0.0389
1455.00,0.0496
1454.00,0.0580
1453.00,0.0638
1452.00,0.0667
1451.00,0.0661
1450.00,0.0623
1449.00,0.0568
1448.00,0.0517
1447.00,0.0476
1446.00,0.0439
1445.00,0.0403
1444.00,0.0371
1443.00,0.0344
1442.00,0.0317
1441.00,0.0289
1440.00,0.0266
1439.00,0.0249
1438.00,0.0231
1437.00,0.0206
1436.00,0.0183
1435.00,0.0167
1434.00,0.0154
1433.00,0.0139
1432.00,0.0126
1431.00,0.0118
1430.00,0.0111
1429.00,0.0101
1428.00,0.0093
1427.00,0.0091
1426.00,0.0090
1425.00,0.0085
1424.00,0.0080
1423.00,0.0079
1422.00,0.0079
1421.00,0.0075
1420.00,0.0070
1419.00,0.0071
1418.00,0.0072
1417.00,0.0068
1416.00,0.0063
1415.00,0.0064
1414.00,0.0066
1413.00,0.0064
1412.00,0.0060
1411.00,0.0061
1410.00,0.0063
1409.00,0.0062
1408.00,0.0058
1407.00,0.0059
1406.00,0.0062
1405.00,0.0062
1404.00,0.0059
1403.00,0.0058
1402.00,0.0061
1401.00,0.0061
1400.00,0.0059
1399.00,0.0059
1398.00,0.0063
1397.00,0.0065
1396.00,0.0064
1395.00,0.0065
1394.00,0.0070
1393.00,0.0073
1392.00,0.0073
1391.00,0.0075
1390.00,0.0081
1389.00,0.0087
1388.00,0.0091
1387.00,0.0095
1386.00,0.0101
1385.00,0.0107
1384.00,0.0110
1383.00,0.0113
1382.00,0.0119
1381.00,0.0124
1380.00,0.0127
1379.00,0.0129
1378.00,0.0134
1377.00,0.0139
1376.00,0.0142
1375.00,0.0145
1374.00,0.0148
1373.00,0.0150
1372.00,0.0149
1371.00,0.0147
1370.00,0.0147
1369.00,0.0148
1368.00,0.0146
1367.00,0.0144
1366.00,0.0143
1365.00,0.0143
1364.00,0.0143
1363.00,0.0141
1362.00,0.0140
1361.00,0.0138
1360.00,0.0135
1359.00,0.0132
1358.00,0.0130
1357.00,0.0129
1356.00,0.0127
1355.00,0.0126
1354.00,0.0125
1353.00,0.0124
1352.00,0.0124
1351.00,0.0124
1350.00,0.0123
1349.00,0.0123
1348.00,0.0122
1347.00,0.0121
1346.00,0.0120
1345.00,0.0118
1344.00,0.0115
1343.00,0.0113
1342.00,0.0112
1341.00,0.0111
1340.00,0.0110
1339.00,0.0109
1338.00,0.0109
1337.00,0.0109
1336.00,0.0109
1335.00,0.0111
1334.00,0.0114
1333.00,0.0117
1332.00,0.0120
1331.00,0.0122
1330.00,0.0125
1329.00,0.0126
1328.00,0.0126
1327.00,0.0126
1326.00,0.0125
1325.00,0.0123
1324.00,0.0121
1323.00,0.0120
1322.00,0.0119
1321.00,0.0118
1320.00,0.0118
1319.00,0.0118
1318.00,0.0119
1317.00,0.0120
1316.00,0.0121
1315.00,0.0123
1314.00,0.0124
1313.00,0.0125
1312.00,0.0125
1311.00,0.0124
1310.00,0.0123
1309.00,0.0121
1308.00,0.0119
1307.00,0.0117
1306.00,0.0116
1305.00,0.0114
1304.00,0.0112
1303.00,0.0111
1302.00,0.0109
1301.00,0.0108
1300.00,0.0107
1299.00,0.0107
1298.00,0.0107
1297.00,0.0107
1296.00,0.0107
1295.00,0.0107
1294.00,0.0108
1293.00,0.0108
1292.00,0.0107
1291.00,0.0107
1290.00,0.0106
1289.00,0.0104
1288.00,0.0102
1287.00,0.0101
1286.00,0.0100
1285.00,0.0099
1284.00,0.0098
1283.00,0.0097
1282.00,0.0097
1281.00,0.0097
1280.00,0.0096
1279.00,0.0094
1278.00,0.0093
1277.00,0.0091
1276.00,0.0089
1275.00,0.0087
1274.00,0.0085
1273.00,0.0084
1272.00,0.0082
1271.00,0.0080
1270.00,0.0079
1269.00,0.0078
1268.00,0.0076
1267.00,0.0075
1266.00,0.0074
1265.00,0.0073
1264.00,0.0072
1263.00,0.0071
1262.00,0.0070
1261.00,0.0070
1260.00,0.0069
1259.00,0.0069
1258.00,0.0069
1257.00,0.0069
1256.00,0.0069
1255.00,0.0069
1254.00,0.0070
1253.00,0.0070
1252.00,0.0070
1251.00,0.0070
1250.00,0.0071
1249.00,0.0071
1248.00,0.0071
1247.00,0.0071
1246.00,0.0072
1245.00,0.0072
1244.00,0.0072
1243.00,0.0072
1242.00,0.0072
1241.00,0.0072
1240.00,0.0071
1239.00,0.0071
1238.00,0.0071
1237.00,0.0071
1236.00,0.0070
1235.00,0.0070
1234.00,0.0070
1233.00,0.0070
1232.00,0.0070
1231.00,0.0070
1230.00,0.0071
1229.00,0.0071
1228.00,0.0071
1227.00,0.0071
1226.00,0.0071
1225.00,0.0071
1224.00,0.0071
1223.00,0.0071
1222.00,0.0071
1221.00,0.0071
1220.00,0.0071
1219.00,0.0070
1218.00,0.0071
1217.00,0.0071
1216.00,0.0071
1215.00,0.0072
1214.00,0.0073
1213.00,0.0074
1212.00,0.0074
1211.00,0.0075
1210.00,0.0077
1209.00,0.0078
1208.00,0.0080
1207.00,0.0082
1206.00,0.0084
1205.00,0.0087
1204.00,0.0089
1203.00,0.0091
1202.00,0.0094
1201.00,0.0096
1200.00,0.0098
1199.00,0.0100
1198.00,0.0102
1197.00,0.0104
1196.00,0.0104
1195.00,0.0104
1194.00,0.0105
1193.00,0.0105
1192.00,0.0105
1191.00,0.0106
1190.00,0.0107
1189.00,0.0109
1188.00,0.0111
1187.00,0.0114
1186.00,0.0119
1185.00,0.0125
1184.00,0.0131
1183.00,0.0137
1182.00,0.0141
1181.00,0.0142
1180.00,0.0139
1179.00,0.0132
1178.00,0.0124
1177.00,0.0115
1176.00,0.0106
1175.00,0.0099
1174.00,0.0094
1173.00,0.0090
1172.00,0.0087
1171.00,0.0086
1170.00,0.0085
1169.00,0.0084
1168.00,0.0084
1167.00,0.0083
1166.00,0.0084
1165.00,0.0085
1164.00,0.0086
1163.00,0.0088
1162.00,0.0091
1161.00,0.0096
1160.00,0.0102
1159.00,0.0110
1158.00,0.0119
1157.00,0.0129
1156.00,0.0136
1155.00,0.0140
1154.00,0.0140
1153.00,0.0135
1152.00,0.0126
1151.00,0.0115
1150.00,0.0104
1149.00,0.0095
1148.00,0.0086
1147.00,0.0080
1146.00,0.0076
1145.00,0.0072
1144.00,0.0069
1143.00,0.0067
1142.00,0.0065
1141.00,0.0063
1140.00,0.0061
1139.00,0.0060
1138.00,0.0059
1137.00,0.0058
1136.00,0.0056
1135.00,0.0056
1134.00,0.0056
1133.00,0.0056
1132.00,0.0056
1131.00,0.0055
1130.00,0.0056
1129.00,0.0056
1128.00,0.0055
1127.00,0.0055
1126.00,0.0056
1125.00,0.0056
1124.00,0.0057
1123.00,0.0058
1122.00,0.0059
1121.00,0.0061
1120.00,0.0062
1119.00,0.0064
1118.00,0.0067
1117.00,0.0069
1116.00,0.0070
1115.00,0.0072
1114.00,0.0073
1113.00,0.0075
1112.00,0.0075
1111.00,0.0075
1110.00,0.0075
1109.00,0.0075
1108.00,0.0074
1107.00,0.0073
1106.00,0.0073
1105.00,0.0072
1104.00,0.0072
1103.00,0.0073
1102.00,0.0074
1101.00,0.0075
1100.00,0.0076
1099.00,0.0076
1098.00,0.0077
1097.00,0.0078
1096.00,0.0079
1095.00,0.0080
1094.00,0.0082
1093.00,0.0083
1092.00,0.0084
1091.00,0.0085
1090.00,0.0087
1089.00,0.0089
1088.00,0.0091
1087.00,0.0094
1086.00,0.0097
1085.00,0.0100
1084.00,0.0104
1083.00,0.0107
1082.00,0.0111
1081.00,0.0115
1080.00,0.0119
1079.00,0.0123
1078.00,0.0128
1077.00,0.0134
1076.00,0.0140
1075.00,0.0147
1074.00,0.0155
1073.00,0.0163
1072.00,0.0169
1071.00,0.0175
1070.00,0.0179
1069.00,0.0182
1068.00,0.0182
1067.00,0.0179
1066.00,0.0175
1065.00,0.0169
1064.00,0.0162
1063.00,0.0155
1062.00,0.0149
1061.00,0.0143
1060.00,0.0137
1059.00,0.0131
1058.00,0.0126
1057.00,0.0122
1056.00,0.0119
1055.00,0.0115
1054.00,0.0113
1053.00,0.0110
1052.00,0.0107
1051.00,0.0104
1050.00,0.0102
1049.00,0.0100
1048.00,0.0098
1047.00,0.0096
1046.00,0.0095
1045.00,0.0094
1044.00,0.0093
1043.00,0.0093
1042.00,0.0094
1041.00,0.0095
1040.00,0.0097
1039.00,0.0102
1038.00,0.0109
1037.00,0.0121
1036.00,0.0138
1035.00,0.0160
1034.00,0.0187
1033.00,0.0217
1032.00,0.0248
1031.00,0.0276
1030.00,0.0300
1029.00,0.0316
1028.00,0.0321
1027.00,0.0315
1026.00,0.0299
1025.00,0.0278
1024.00,0.0254
1023.00,0.0233
1022.00,0.0214
1021.00,0.0199
1020.00,0.0186
1019.00,0.0175
1018.00,0.0166
1017.00,0.0158
1016.00,0.0151
1015.00,0.0144
1014.00,0.0139
1013.00,0.0134
1012.00,0.0130
1011.00,0.0126
1010.00,0.0124
1009.00,0.0122
1008.00,0.0122
1007.00,0.0124
1006.00,0.0127
1005.00,0.0131
1004.00,0.0133
1003.00,0.0133
1002.00,0.0130
1001.00,0.0123
1000.00,0.0115
999.00,0.0107
998.00,0.0101
997.00,0.0098
996.00,0.0095
995.00,0.0093
994.00,0.0093
993.00,0.0093
992.00,0.0093
991.00,0.0094
990.00,0.0095
989.00,0.0097
988.00,0.0099
987.00,0.0102
986.00,0.0105
985.00,0.0108
984.00,0.0111
983.00,0.0114
982.00,0.0116
981.00,0.0118
980.00,0.0118
979.00,0.0118
978.00,0.0117
977.00,0.0115
976.00,0.0112
975.00,0.0110
974.00,0.0108
973.00,0.0108
972.00,0.0108
971.00,0.0109
970.00,0.0112
969.00,0.0116
968.00,0.0120
967.00,0.0124
966.00,0.0128
965.00,0.0130
964.00,0.0130
963.00,0.0129
962.00,0.0125
961.00,0.0121
960.00,0.0115
959.00,0.0109
958.00,0.0104
957.00,0.0100
956.00,0.0096
955.00,0.0094
954.00,0.0092
953.00,0.0092
952.00,0.0092
951.00,0.0092
950.00,0.0093
949.00,0.0094
948.00,0.0096
947.00,0.0097
946.00,0.0099
945.00,0.0101
944.00,0.0102
943.00,0.0103
942.00,0.0103
941.00,0.0101
940.00,0.0099
939.00,0.0097
938.00,0.0094
937.00,0.0091
936.00,0.0087
935.00,0.0083
934.00,0.0080
933.00,0.0078
932.00,0.0076
931.00,0.0074
930.00,0.0073
929.00,0.0072
928.00,0.0072
927.00,0.0072
926.00,0.0073
925.00,0.0074
924.00,0.0075
923.00,0.0076
922.00,0.0078
921.00,0.0081
920.00,0.0084
919.00,0.0088
918.00,0.0093
917.00,0.0100
916.00,0.0108
915.00,0.0118
914.00,0.0130
913.00,0.0143
912.00,0.0158
911.00,0.0173
910.00,0.0188
909.00,0.0202
908.00,0.0212
907.00,0.0218
906.00,0.0219
905.00,0.0214
904.00,0.0205
903.00,0.0191
902.00,0.0176
901.00,0.0159
900.00,0.0143
899.00,0.0127
898.00,0.0115
897.00,0.0104
896.00,0.0095
895.00,0.0088
894.00,0.0082
893.00,0.0078
892.00,0.0074
891.00,0.0071
890.00,0.0070
889.00,0.0068
888.00,0.0067
887.00,0.0065
886.00,0.0064
885.00,0.0063
884.00,0.0061
883.00,0.0060
882.00,0.0059
881.00,0.0058
880.00,0.0057
879.00,0.0056
878.00,0.0056
877.00,0.0056
876.00,0.0055
875.00,0.0054
874.00,0.0054
873.00,0.0054
872.00,0.0053
871.00,0.0053
870.00,0.0053
869.00,0.0053
868.00,0.0052
867.00,0.0051
866.00,0.0051
865.00,0.0051
864.00,0.0051
863.00,0.0052
862.00,0.0052
861.00,0.0053
860.00,0.0053
859.00,0.0053
858.00,0.0053
857.00,0.0054
856.00,0.0055
855.00,0.0056
854.00,0.0059
853.00,0.0061
852.00,0.0064
851.00,0.0068
850.00,0.0074
849.00,0.0080
848.00,0.0086
847.00,0.0092
846.00,0.0098
845.00,0.0103
844.00,0.0108
843.00,0.0111
842.00,0.0113
841.00,0.0113
840.00,0.0111
839.00,0.0107
838.00,0.0102
837.00,0.0095
836.00,0.0088
835.00,0.0080
834.00,0.0074
833.00,0.0069
832.00,0.0064
831.00,0.0060
830.00,0.0058
829.00,0.0055
828.00,0.0054
827.00,0.0052
826.00,0.0051
825.00,0.0051
824.00,0.0051
823.00,0.0050
822.00,0.0050
821.00,0.0050
820.00,0.0050
819.00,0.0050
818.00,0.0050
817.00,0.0051
816.00,0.0052
815.00,0.0053
814.00,0.0053
813.00,0.0054
812.00,0.0054
811.00,0.0054
810.00,0.0055
809.00,0.0055
808.00,0.0056
807.00,0.0056
806.00,0.0057
805.00,0.0057
804.00,0.0057
803.00,0.0058
802.00,0.0059
801.00,0.0061
800.00,0.0063
799.00,0.0065
798.00,0.0068
797.00,0.0072
796.00,0.0075
795.00,0.0078
794.00,0.0082
793.00,0.0087
792.00,0.0092
791.00,0.0098
790.00,0.0104
789.00,0.0111
788.00,0.0118
787.00,0.0126
786.00,0.0134
785.00,0.0142
784.00,0.0151
783.00,0.0160
782.00,0.0172
781.00,0.0184
780.00,0.0199
779.00,0.0215
778.00,0.0234
777.00,0.0255
776.00,0.0278
775.00,0.0304
774.00,0.0333
773.00,0.0364
772.00,0.0397
771.00,0.0432
770.00,0.0469
769.00,0.0508
768.00,0.0547
767.00,0.0585
766.00,0.0623
765.00,0.0660
764.00,0.0697
763.00,0.0735
762.00,0.0774
761.00,0.0814
760.00,0.0852
759.00,0.0889
758.00,0.0921
757.00,0.0946
756.00,0.0963
755.00,0.0970
754.00,0.0971
753.00,0.0967
752.00,0.0963
751.00,0.0960
750.00,0.0958
749.00,0.0955
748.00,0.0947
747.00,0.0931
746.00,0.0903
745.00,0.0861
744.00,0.0807
743.00,0.0744
742.00,0.0678
741.00,0.0613
740.00,0.0552
739.00,0.0497
738.00,0.0447
737.00,0.0401
736.00,0.0357
735.00,0.0314
734.00,0.0274
733.00,0.0238
732.00,0.0206
731.00,0.0181
730.00,0.0160
729.00,0.0145
728.00,0.0133
727.00,0.0125
726.00,0.0119
725.00,0.0115
724.00,0.0112
723.00,0.0110
722.00,0.0109
721.00,0.0109
720.00,0.0110
719.00,0.0112
718.00,0.0116
717.00,0.0121
716.00,0.0129
715.00,0.0140
714.00,0.0156
713.00,0.0178
712.00,0.0208
711.00,0.0248
710.00,0.0304
709.00,0.0377
708.00,0.0470
707.00,0.0583
706.00,0.0717
705.00,0.0872
704.00,0.1046
703.00,0.1237
702.00,0.1444
701.00,0.1664
700.00,0.1894
699.00,0.2132
698.00,0.2369
697.00,0.2590
696.00,0.2766
695.00,0.2853
694.00,0.2813
693.00,0.2641
692.00,0.2371
691.00,0.2062
690.00,0.1762
689.00,0.1500
688.00,0.1286
687.00,0.1118
686.00,0.0985
685.00,0.0878
684.00,0.0792
683.00,0.0723
682.00,0.0664
681.00,0.0614
680.00,0.0572
679.00,0.0538
678.00,0.0509
677.00,0.0481
676.00,0.0458
675.00,0.0440
674.00,0.0423
673.00,0.0405
672.00,0.0389
671.00,0.0378
670.00,0.0369
669.00,0.0357
668.00,0.0342
667.00,0.0329
666.00,0.0316
665.00,0.0302
664.00,0.0287
663.00,0.0276
662.00,0.0266
661.00,0.0255
660.00,0.0243
659.00,0.0234
658.00,0.0227
657.00,0.0219
656.00,0.0209
655.00,0.0200
654.00,0.0195
653.00,0.0188
652.00,0.0180
651.00,0.0175
650.00,0.0172
649.00,0.0169
648.00,0.0163
647.00,0.0158
646.00,0.0156
645.00,0.0154
644.00,0.0150
643.00,0.0147
642.00,0.0146
641.00,0.0146
640.00,0.0144
639.00,0.0145
638.00,0.0148
637.00,0.0153
636.00,0.0156
635.00,0.0159
634.00,0.0164
633.00,0.0169
632.00,0.0172
631.00,0.0174
630.00,0.0177
629.00,0.0181
628.00,0.0184
627.00,0.0186
626.00,0.0189
625.00,0.0192
624.00,0.0194
623.00,0.0197
622.00,0.0200
621.00,0.0203
620.00,0.0201
619.00,0.0197
618.00,0.0191
617.00,0.0186
616.00,0.0181
615.00,0.0176
614.00,0.0174
613.00,0.0172
612.00,0.0169
611.00,0.0166
610.00,0.0164
609.00,0.0162
608.00,0.0160
607.00,0.0158
606.00,0.0158
605.00,0.0157
604.00,0.0156
603.00,0.0155
602.00,0.0156
601.00,0.0159
600.00,0.0160
599.00,0.0163
598.00,0.0166
597.00,0.0168
596.00,0.0170
595.00,0.0172
594.00,0.0175
593.00,0.0178
592.00,0.0180
591.00,0.0183
590.00,0.0186
589.00,0.0189
588.00,0.0191
587.00,0.0194
586.00,0.0198
585.00,0.0203
584.00,0.0207
583.00,0.0212
582.00,0.0219
581.00,0.0226
580.00,0.0233
579.00,0.0240
578.00,0.0251
577.00,0.0262
576.00,0.0274
575.00,0.0286
574.00,0.0301
573.00,0.0315
572.00,0.0327
571.00,0.0340
570.00,0.0354
569.00,0.0367
568.00,0.0379
567.00,0.0390
566.00,0.0403
565.00,0.0415
564.00,0.0424
563.00,0.0435
562.00,0.0448
561.00,0.0461
560.00,0.0472
559.00,0.0483
558.00,0.0497
557.00,0.0511
556.00,0.0523
555.00,0.0537
554.00,0.0553
553.00,0.0571
552.00,0.0587
551.00,0.0604
550.00,0.0623
549.00,0.0645
548.00,0.0668
547.00,0.0693
546.00,0.0723
545.00,0.0754
544.00,0.0785
543.00,0.0816
542.00,0.0846
541.00,0.0875
540.00,0.0898
539.00,0.0914
538.00,0.0921
537.00,0.0917
536.00,0.0898
535.00,0.0866
534.00,0.0827
533.00,0.0782
532.00,0.0734
531.00,0.0685
530.00,0.0637
529.00,0.0593
528.00,0.0550
527.00,0.0508
526.00,0.0471
525.00,0.0439
524.00,0.0410
523.00,0.0385
522.00,0.0364
521.00,0.0347
520.00,0.0330
519.00,0.0316
518.00,0.0305
517.00,0.0295
516.00,0.0284
515.00,0.0273
514.00,0.0266
513.00,0.0260
512.00,0.0252
511.00,0.0243
510.00,0.0236
509.00,0.0230
508.00,0.0222
507.00,0.0213
506.00,0.0205
505.00,0.0198
504.00,0.0191
503.00,0.0184
502.00,0.0179
501.00,0.0175
500.00,0.0171
499.00,0.0167
498.00,0.0165
497.00,0.0163
496.00,0.0159
495.00,0.0155
494.00,0.0153
493.00,0.0152
492.00,0.0150
491.00,0.0147
490.00,0.0145
489.00,0.0145
488.00,0.0144
487.00,0.0142
486.00,0.0140
485.00,0.0136
484.00,0.0130
483.00,0.0125
482.00,0.0124
481.00,0.0125
480.00,0.0125
479.00,0.0123
478.00,0.0124
477.00,0.0124
476.00,0.0122
475.00,0.0119
474.00,0.0118
473.00,0.0117
472.00,0.0114
471.00,0.0113
470.00,0.0115
469.00,0.0116
468.00,0.0113
467.00,0.0109
466.00,0.0108
465.00,0.0110
464.00,0.0111
463.00,0.0111
462.00,0.0113
461.00,0.0115
460.00,0.0113
459.00,0.0111
458.00,0.0110
457.00,0.0109
456.00,0.0107
455.00,0.0106
454.00,0.0107
453.00,0.0107
452.00,0.0104
451.00,0.0103
450.00,0.0105
449.00,0.0106
448.00,0.0104
447.00,0.0104
446.00,0.0107
445.00,0.0110
444.00,0.0110
443.00,0.0110
442.00,0.0111
441.00,0.0111
440.00,0.0107
439.00,0.0105
438.00,0.0107
437.00,0.0108
436.00,0.0105
435.00,0.0103
434.00,0.0103
433.00,0.0102
432.00,0.0096
431.00,0.0093
430.00,0.0095
429.00,0.0097
428.00,0.0093
427.00,0.0090
426.00,0.0092
425.00,0.0095
424.00,0.0094
423.00,0.0094
422.00,0.0101
421.00,0.0109
420.00,0.0109
419.00,0.0106
418.00,0.0108
417.00,0.0105
416.00,0.0093
415.00,0.0082
414.00,0.0081
413.00,0.0083
412.00,0.0080
411.00,0.0079
410.00,0.0090
409.00,0.0102
408.00,0.0106
407.00,0.0106
406.00,0.0114
405.00,0.0120
404.00,0.0111
403.00,0.0097
402.00,0.0095
401.00,0.0100
400.00,0.0091
