Created as New Dataset,Sample 112 By YargerLab Date Friday, August 15 2025
cm-1,A
4000.00,0.0014
3999.00,0.0014
3998.00,0.0014
3997.00,0.0014
3996.00,0.0015
3995.00,0.0015
3994.00,0.0014
3993.00,0.0014
3992.00,0.0014
3991.00,0.0014
3990.00,0.0013
3989.00,0.0013
3988.00,0.0013
3987.00,0.0013
3986.00,0.0013
3985.00,0.0013
3984.00,0.0013
3983.00,0.0013
3982.00,0.0013
3981.00,0.0013
3980.00,0.0014
3979.00,0.0014
3978.00,0.0013
3977.00,0.0013
3976.00,0.0013
3975.00,0.0013
3974.00,0.0013
3973.00,0.0013
3972.00,0.0013
3971.00,0.0013
3970.00,0.0013
3969.00,0.0013
3968.00,0.0013
3967.00,0.0013
3966.00,0.0013
3965.00,0.0013
3964.00,0.0013
3963.00,0.0013
3962.00,0.0013
3961.00,0.0013
3960.00,0.0013
3959.00,0.0013
3958.00,0.0013
3957.00,0.0013
3956.00,0.0013
3955.00,0.0013
3954.00,0.0013
3953.00,0.0012
3952.00,0.0012
3951.00,0.0012
3950.00,0.0012
3949.00,0.0012
3948.00,0.0013
3947.00,0.0013
3946.00,0.0013
3945.00,0.0013
3944.00,0.0013
3943.00,0.0013
3942.00,0.0013
3941.00,0.0013
3940.00,0.0013
3939.00,0.0013
3938.00,0.0013
3937.00,0.0013
3936.00,0.0013
3935.00,0.0013
3934.00,0.0013
3933.00,0.0013
3932.00,0.0013
3931.00,0.0013
3930.00,0.0013
3929.00,0.0013
3928.00,0.0013
3927.00,0.0013
3926.00,0.0013
3925.00,0.0013
3924.00,0.0013
3923.00,0.0013
3922.00,0.0013
3921.00,0.0013
3920.00,0.0013
3919.00,0.0013
3918.00,0.0013
3917.00,0.0012
3916.00,0.0012
3915.00,0.0012
3914.00,0.0012
3913.00,0.0012
3912.00,0.0013
3911.00,0.0013
3910.00,0.0013
3909.00,0.0013
3908.00,0.0013
3907.00,0.0013
3906.00,0.0013
3905.00,0.0013
3904.00,0.0013
3903.00,0.0013
3902.00,0.0013
3901.00,0.0013
3900.00,0.0012
3899.00,0.0012
3898.00,0.0013
3897.00,0.0013
3896.00,0.0013
3895.00,0.0013
3894.00,0.0013
3893.00,0.0013
3892.00,0.0013
3891.00,0.0013
3890.00,0.0012
3889.00,0.0012
3888.00,0.0012
3887.00,0.0012
3886.00,0.0012
3885.00,0.0013
3884.00,0.0013
3883.00,0.0013
3882.00,0.0013
3881.00,0.0012
3880.00,0.0012
3879.00,0.0012
3878.00,0.0012
3877.00,0.0013
3876.00,0.0013
3875.00,0.0013
3874.00,0.0013
3873.00,0.0013
3872.00,0.0013
3871.00,0.0013
3870.00,0.0013
3869.00,0.0013
3868.00,0.0012
3867.00,0.0012
3866.00,0.0012
3865.00,0.0012
3864.00,0.0012
3863.00,0.0012
3862.00,0.0012
3861.00,0.0012
3860.00,0.0012
3859.00,0.0012
3858.00,0.0012
3857.00,0.0012
3856.00,0.0012
3855.00,0.0012
3854.00,0.0012
3853.00,0.0012
3852.00,0.0012
3851.00,0.0012
3850.00,0.0012
3849.00,0.0012
3848.00,0.0012
3847.00,0.0013
3846.00,0.0012
3845.00,0.0012
3844.00,0.0012
3843.00,0.0012
3842.00,0.0012
3841.00,0.0012
3840.00,0.0012
3839.00,0.0012
3838.00,0.0012
3837.00,0.0012
3836.00,0.0012
3835.00,0.0012
3834.00,0.0012
3833.00,0.0012
3832.00,0.0013
3831.00,0.0013
3830.00,0.0013
3829.00,0.0013
3828.00,0.0013
3827.00,0.0012
3826.00,0.0012
3825.00,0.0012
3824.00,0.0012
3823.00,0.0012
3822.00,0.0012
3821.00,0.0012
3820.00,0.0012
3819.00,0.0012
3818.00,0.0012
3817.00,0.0012
3816.00,0.0012
3815.00,0.0012
3814.00,0.0012
3813.00,0.0012
3812.00,0.0012
3811.00,0.0012
3810.00,0.0012
3809.00,0.0012
3808.00,0.0012
3807.00,0.0013
3806.00,0.0013
3805.00,0.0013
3804.00,0.0013
3803.00,0.0013
3802.00,0.0013
3801.00,0.0013
3800.00,0.0013
3799.00,0.0013
3798.00,0.0013
3797.00,0.0013
3796.00,0.0013
3795.00,0.0012
3794.00,0.0012
3793.00,0.0012
3792.00,0.0012
3791.00,0.0012
3790.00,0.0012
3789.00,0.0012
3788.00,0.0012
3787.00,0.0012
3786.00,0.0012
3785.00,0.0012
3784.00,0.0012
3783.00,0.0012
3782.00,0.0012
3781.00,0.0012
3780.00,0.0012
3779.00,0.0012
3778.00,0.0012
3777.00,0.0011
3776.00,0.0011
3775.00,0.0011
3774.00,0.0011
3773.00,0.0012
3772.00,0.0012
3771.00,0.0012
3770.00,0.0012
3769.00,0.0012
3768.00,0.0012
3767.00,0.0012
3766.00,0.0012
3765.00,0.0012
3764.00,0.0012
3763.00,0.0012
3762.00,0.0011
3761.00,0.0011
3760.00,0.0012
3759.00,0.0012
3758.00,0.0012
3757.00,0.0012
3756.00,0.0012
3755.00,0.0012
3754.00,0.0012
3753.00,0.0012
3752.00,0.0012
3751.00,0.0012
3750.00,0.0012
3749.00,0.0011
3748.00,0.0011
3747.00,0.0011
3746.00,0.0011
3745.00,0.0012
3744.00,0.0012
3743.00,0.0012
3742.00,0.0011
3741.00,0.0011
3740.00,0.0010
3739.00,0.0010
3738.00,0.0011
3737.00,0.0011
3736.00,0.0011
3735.00,0.0012
3734.00,0.0012
3733.00,0.0012
3732.00,0.0012
3731.00,0.0012
3730.00,0.0012
3729.00,0.0012
3728.00,0.0012
3727.00,0.0012
3726.00,0.0012
3725.00,0.0012
3724.00,0.0012
3723.00,0.0011
3722.00,0.0011
3721.00,0.0011
3720.00,0.0011
3719.00,0.0011
3718.00,0.0011
3717.00,0.0011
3716.00,0.0011
3715.00,0.0012
3714.00,0.0012
3713.00,0.0012
3712.00,0.0011
3711.00,0.0011
3710.00,0.0011
3709.00,0.0011
3708.00,0.0012
3707.00,0.0012
3706.00,0.0012
3705.00,0.0012
3704.00,0.0012
3703.00,0.0011
3702.00,0.0011
3701.00,0.0011
3700.00,0.0011
3699.00,0.0011
3698.00,0.0011
3697.00,0.0011
3696.00,0.0011
3695.00,0.0011
3694.00,0.0011
3693.00,0.0011
3692.00,0.0011
3691.00,0.0011
3690.00,0.0011
3689.00,0.0011
3688.00,0.0011
3687.00,0.0011
3686.00,0.0011
3685.00,0.0011
3684.00,0.0012
3683.00,0.0012
3682.00,0.0012
3681.00,0.0012
3680.00,0.0012
3679.00,0.0012
3678.00,0.0012
3677.00,0.0012
3676.00,0.0012
3675.00,0.0012
3674.00,0.0013
3673.00,0.0013
3672.00,0.0013
3671.00,0.0013
3670.00,0.0013
3669.00,0.0013
3668.00,0.0013
3667.00,0.0013
3666.00,0.0012
3665.00,0.0012
3664.00,0.0012
3663.00,0.0012
3662.00,0.0012
3661.00,0.0012
3660.00,0.0012
3659.00,0.0012
3658.00,0.0012
3657.00,0.0013
3656.00,0.0013
3655.00,0.0013
3654.00,0.0013
3653.00,0.0013
3652.00,0.0013
3651.00,0.0013
3650.00,0.0013
3649.00,0.0013
3648.00,0.0013
3647.00,0.0013
3646.00,0.0013
3645.00,0.0013
3644.00,0.0013
3643.00,0.0013
3642.00,0.0013
3641.00,0.0013
3640.00,0.0012
3639.00,0.0012
3638.00,0.0012
3637.00,0.0013
3636.00,0.0013
3635.00,0.0013
3634.00,0.0013
3633.00,0.0013
3632.00,0.0012
3631.00,0.0012
3630.00,0.0012
3629.00,0.0013
3628.00,0.0013
3627.00,0.0013
3626.00,0.0013
3625.00,0.0013
3624.00,0.0013
3623.00,0.0014
3622.00,0.0014
3621.00,0.0014
3620.00,0.0014
3619.00,0.0014
3618.00,0.0014
3617.00,0.0014
3616.00,0.0013
3615.00,0.0013
3614.00,0.0013
3613.00,0.0013
3612.00,0.0014
3611.00,0.0014
3610.00,0.0014
3609.00,0.0014
3608.00,0.0014
3607.00,0.0014
3606.00,0.0014
3605.00,0.0014
3604.00,0.0014
3603.00,0.0014
3602.00,0.0014
3601.00,0.0014
3600.00,0.0015
3599.00,0.0015
3598.00,0.0015
3597.00,0.0015
3596.00,0.0015
3595.00,0.0015
3594.00,0.0015
3593.00,0.0015
3592.00,0.0015
3591.00,0.0015
3590.00,0.0015
3589.00,0.0015
3588.00,0.0015
3587.00,0.0015
3586.00,0.0015
3585.00,0.0015
3584.00,0.0015
3583.00,0.0015
3582.00,0.0016
3581.00,0.0016
3580.00,0.0016
3579.00,0.0016
3578.00,0.0016
3577.00,0.0016
3576.00,0.0016
3575.00,0.0016
3574.00,0.0016
3573.00,0.0016
3572.00,0.0016
3571.00,0.0016
3570.00,0.0016
3569.00,0.0016
3568.00,0.0016
3567.00,0.0016
3566.00,0.0016
3565.00,0.0016
3564.00,0.0016
3563.00,0.0016
3562.00,0.0017
3561.00,0.0017
3560.00,0.0017
3559.00,0.0017
3558.00,0.0017
3557.00,0.0017
3556.00,0.0017
3555.00,0.0017
3554.00,0.0017
3553.00,0.0017
3552.00,0.0018
3551.00,0.0018
3550.00,0.0018
3549.00,0.0018
3548.00,0.0018
3547.00,0.0018
3546.00,0.0018
3545.00,0.0019
3544.00,0.0019
3543.00,0.0019
3542.00,0.0019
3541.00,0.0019
3540.00,0.0019
3539.00,0.0019
3538.00,0.0019
3537.00,0.0019
3536.00,0.0019
3535.00,0.0019
3534.00,0.0019
3533.00,0.0019
3532.00,0.0019
3531.00,0.0020
3530.00,0.0020
3529.00,0.0020
3528.00,0.0020
3527.00,0.0020
3526.00,0.0020
3525.00,0.0020
3524.00,0.0020
3523.00,0.0020
3522.00,0.0021
3521.00,0.0021
3520.00,0.0021
3519.00,0.0021
3518.00,0.0021
3517.00,0.0021
3516.00,0.0021
3515.00,0.0021
3514.00,0.0021
3513.00,0.0022
3512.00,0.0022
3511.00,0.0022
3510.00,0.0022
3509.00,0.0022
3508.00,0.0022
3507.00,0.0022
3506.00,0.0022
3505.00,0.0022
3504.00,0.0022
3503.00,0.0022
3502.00,0.0022
3501.00,0.0022
3500.00,0.0022
3499.00,0.0022
3498.00,0.0022
3497.00,0.0022
3496.00,0.0022
3495.00,0.0023
3494.00,0.0023
3493.00,0.0023
3492.00,0.0023
3491.00,0.0023
3490.00,0.0023
3489.00,0.0023
3488.00,0.0023
3487.00,0.0023
3486.00,0.0023
3485.00,0.0023
3484.00,0.0024
3483.00,0.0024
3482.00,0.0024
3481.00,0.0024
3480.00,0.0023
3479.00,0.0023
3478.00,0.0023
3477.00,0.0024
3476.00,0.0024
3475.00,0.0024
3474.00,0.0024
3473.00,0.0025
3472.00,0.0025
3471.00,0.0025
3470.00,0.0025
3469.00,0.0025
3468.00,0.0025
3467.00,0.0025
3466.00,0.0025
3465.00,0.0025
3464.00,0.0025
3463.00,0.0025
3462.00,0.0025
3461.00,0.0025
3460.00,0.0025
3459.00,0.0025
3458.00,0.0025
3457.00,0.0025
3456.00,0.0025
3455.00,0.0025
3454.00,0.0025
3453.00,0.0026
3452.00,0.0025
3451.00,0.0025
3450.00,0.0025
3449.00,0.0025
3448.00,0.0025
3447.00,0.0025
3446.00,0.0025
3445.00,0.0026
3444.00,0.0026
3443.00,0.0026
3442.00,0.0025
3441.00,0.0025
3440.00,0.0025
3439.00,0.0025
3438.00,0.0025
3437.00,0.0025
3436.00,0.0026
3435.00,0.0026
3434.00,0.0026
3433.00,0.0025
3432.00,0.0025
3431.00,0.0025
3430.00,0.0025
3429.00,0.0025
3428.00,0.0025
3427.00,0.0025
3426.00,0.0025
3425.00,0.0025
3424.00,0.0025
3423.00,0.0025
3422.00,0.0025
3421.00,0.0025
3420.00,0.0025
3419.00,0.0025
3418.00,0.0025
3417.00,0.0025
3416.00,0.0025
3415.00,0.0025
3414.00,0.0025
3413.00,0.0025
3412.00,0.0025
3411.00,0.0024
3410.00,0.0025
3409.00,0.0025
3408.00,0.0025
3407.00,0.0025
3406.00,0.0025
3405.00,0.0025
3404.00,0.0025
3403.00,0.0025
3402.00,0.0025
3401.00,0.0025
3400.00,0.0025
3399.00,0.0025
3398.00,0.0025
3397.00,0.0025
3396.00,0.0025
3395.00,0.0025
3394.00,0.0025
3393.00,0.0025
3392.00,0.0025
3391.00,0.0025
3390.00,0.0025
3389.00,0.0025
3388.00,0.0025
3387.00,0.0025
3386.00,0.0025
3385.00,0.0025
3384.00,0.0025
3383.00,0.0025
3382.00,0.0025
3381.00,0.0025
3380.00,0.0025
3379.00,0.0025
3378.00,0.0025
3377.00,0.0024
3376.00,0.0024
3375.00,0.0024
3374.00,0.0024
3373.00,0.0024
3372.00,0.0025
3371.00,0.0025
3370.00,0.0025
3369.00,0.0025
3368.00,0.0025
3367.00,0.0025
3366.00,0.0025
3365.00,0.0025
3364.00,0.0025
3363.00,0.0025
3362.00,0.0024
3361.00,0.0024
3360.00,0.0024
3359.00,0.0025
3358.00,0.0025
3357.00,0.0025
3356.00,0.0025
3355.00,0.0025
3354.00,0.0024
3353.00,0.0024
3352.00,0.0024
3351.00,0.0024
3350.00,0.0024
3349.00,0.0024
3348.00,0.0024
3347.00,0.0024
3346.00,0.0024
3345.00,0.0024
3344.00,0.0024
3343.00,0.0024
3342.00,0.0024
3341.00,0.0024
3340.00,0.0023
3339.00,0.0023
3338.00,0.0023
3337.00,0.0023
3336.00,0.0024
3335.00,0.0024
3334.00,0.0024
3333.00,0.0023
3332.00,0.0023
3331.00,0.0023
3330.00,0.0023
3329.00,0.0023
3328.00,0.0023
3327.00,0.0023
3326.00,0.0023
3325.00,0.0023
3324.00,0.0023
3323.00,0.0024
3322.00,0.0024
3321.00,0.0023
3320.00,0.0023
3319.00,0.0023
3318.00,0.0023
3317.00,0.0023
3316.00,0.0023
3315.00,0.0023
3314.00,0.0023
3313.00,0.0023
3312.00,0.0023
3311.00,0.0023
3310.00,0.0023
3309.00,0.0023
3308.00,0.0023
3307.00,0.0023
3306.00,0.0023
3305.00,0.0022
3304.00,0.0022
3303.00,0.0022
3302.00,0.0022
3301.00,0.0022
3300.00,0.0022
3299.00,0.0022
3298.00,0.0022
3297.00,0.0022
3296.00,0.0022
3295.00,0.0022
3294.00,0.0023
3293.00,0.0023
3292.00,0.0023
3291.00,0.0022
3290.00,0.0022
3289.00,0.0022
3288.00,0.0022
3287.00,0.0022
3286.00,0.0022
3285.00,0.0022
3284.00,0.0022
3283.00,0.0022
3282.00,0.0022
3281.00,0.0022
3280.00,0.0022
3279.00,0.0022
3278.00,0.0022
3277.00,0.0022
3276.00,0.0022
3275.00,0.0022
3274.00,0.0022
3273.00,0.0022
3272.00,0.0022
3271.00,0.0021
3270.00,0.0021
3269.00,0.0021
3268.00,0.0021
3267.00,0.0021
3266.00,0.0021
3265.00,0.0021
3264.00,0.0022
3263.00,0.0022
3262.00,0.0022
3261.00,0.0022
3260.00,0.0022
3259.00,0.0021
3258.00,0.0021
3257.00,0.0021
3256.00,0.0021
3255.00,0.0021
3254.00,0.0021
3253.00,0.0021
3252.00,0.0021
3251.00,0.0021
3250.00,0.0021
3249.00,0.0021
3248.00,0.0021
3247.00,0.0021
3246.00,0.0021
3245.00,0.0021
3244.00,0.0021
3243.00,0.0021
3242.00,0.0021
3241.00,0.0021
3240.00,0.0021
3239.00,0.0021
3238.00,0.0021
3237.00,0.0020
3236.00,0.0020
3235.00,0.0020
3234.00,0.0021
3233.00,0.0021
3232.00,0.0020
3231.00,0.0021
3230.00,0.0021
3229.00,0.0021
3228.00,0.0021
3227.00,0.0021
3226.00,0.0020
3225.00,0.0020
3224.00,0.0020
3223.00,0.0020
3222.00,0.0020
3221.00,0.0020
3220.00,0.0019
3219.00,0.0019
3218.00,0.0019
3217.00,0.0019
3216.00,0.0019
3215.00,0.0020
3214.00,0.0020
3213.00,0.0020
3212.00,0.0020
3211.00,0.0020
3210.00,0.0020
3209.00,0.0021
3208.00,0.0021
3207.00,0.0021
3206.00,0.0021
3205.00,0.0021
3204.00,0.0021
3203.00,0.0021
3202.00,0.0021
3201.00,0.0021
3200.00,0.0021
3199.00,0.0020
3198.00,0.0020
3197.00,0.0020
3196.00,0.0020
3195.00,0.0020
3194.00,0.0020
3193.00,0.0020
3192.00,0.0020
3191.00,0.0020
3190.00,0.0020
3189.00,0.0020
3188.00,0.0019
3187.00,0.0019
3186.00,0.0019
3185.00,0.0019
3184.00,0.0019
3183.00,0.0019
3182.00,0.0019
3181.00,0.0019
3180.00,0.0019
3179.00,0.0019
3178.00,0.0019
3177.00,0.0019
3176.00,0.0019
3175.00,0.0019
3174.00,0.0019
3173.00,0.0019
3172.00,0.0019
3171.00,0.0019
3170.00,0.0020
3169.00,0.0020
3168.00,0.0020
3167.00,0.0020
3166.00,0.0020
3165.00,0.0020
3164.00,0.0020
3163.00,0.0020
3162.00,0.0020
3161.00,0.0020
3160.00,0.0019
3159.00,0.0019
3158.00,0.0019
3157.00,0.0019
3156.00,0.0019
3155.00,0.0019
3154.00,0.0019
3153.00,0.0019
3152.00,0.0018
3151.00,0.0018
3150.00,0.0018
3149.00,0.0018
3148.00,0.0018
3147.00,0.0017
3146.00,0.0017
3145.00,0.0017
3144.00,0.0017
3143.00,0.0017
3142.00,0.0017
3141.00,0.0017
3140.00,0.0017
3139.00,0.0017
3138.00,0.0017
3137.00,0.0018
3136.00,0.0018
3135.00,0.0018
3134.00,0.0018
3133.00,0.0018
3132.00,0.0018
3131.00,0.0018
3130.00,0.0018
3129.00,0.0018
3128.00,0.0018
3127.00,0.0018
3126.00,0.0018
3125.00,0.0018
3124.00,0.0019
3123.00,0.0019
3122.00,0.0019
3121.00,0.0019
3120.00,0.0019
3119.00,0.0020
3118.00,0.0021
3117.00,0.0021
3116.00,0.0022
3115.00,0.0023
3114.00,0.0024
3113.00,0.0026
3112.00,0.0027
3111.00,0.0029
3110.00,0.0031
3109.00,0.0033
3108.00,0.0035
3107.00,0.0037
3106.00,0.0039
3105.00,0.0040
3104.00,0.0041
3103.00,0.0040
3102.00,0.0040
3101.00,0.0039
3100.00,0.0039
3099.00,0.0038
3098.00,0.0037
3097.00,0.0037
3096.00,0.0038
3095.00,0.0039
3094.00,0.0041
3093.00,0.0044
3092.00,0.0047
3091.00,0.0051
3090.00,0.0057
3089.00,0.0063
3088.00,0.0070
3087.00,0.0077
3086.00,0.0084
3085.00,0.0089
3084.00,0.0093
3083.00,0.0095
3082.00,0.0094
3081.00,0.0091
3080.00,0.0087
3079.00,0.0082
3078.00,0.0078
3077.00,0.0074
3076.00,0.0071
3075.00,0.0070
3074.00,0.0069
3073.00,0.0069
3072.00,0.0071
3071.00,0.0073
3070.00,0.0077
3069.00,0.0081
3068.00,0.0087
3067.00,0.0094
3066.00,0.0101
3065.00,0.0109
3064.00,0.0116
3063.00,0.0123
3062.00,0.0128
3061.00,0.0130
3060.00,0.0131
3059.00,0.0128
3058.00,0.0124
3057.00,0.0117
3056.00,0.0110
3055.00,0.0103
3054.00,0.0096
3053.00,0.0089
3052.00,0.0084
3051.00,0.0079
3050.00,0.0075
3049.00,0.0071
3048.00,0.0069
3047.00,0.0067
3046.00,0.0066
3045.00,0.0066
3044.00,0.0067
3043.00,0.0069
3042.00,0.0072
3041.00,0.0075
3040.00,0.0080
3039.00,0.0086
3038.00,0.0093
3037.00,0.0101
3036.00,0.0110
3035.00,0.0122
3034.00,0.0136
3033.00,0.0151
3032.00,0.0169
3031.00,0.0187
3030.00,0.0205
3029.00,0.0222
3028.00,0.0236
3027.00,0.0245
3026.00,0.0249
3025.00,0.0245
3024.00,0.0236
3023.00,0.0220
3022.00,0.0201
3021.00,0.0179
3020.00,0.0158
3019.00,0.0138
3018.00,0.0121
3017.00,0.0107
3016.00,0.0095
3015.00,0.0086
3014.00,0.0078
3013.00,0.0073
3012.00,0.0068
3011.00,0.0065
3010.00,0.0063
3009.00,0.0063
3008.00,0.0063
3007.00,0.0065
3006.00,0.0067
3005.00,0.0069
3004.00,0.0071
3003.00,0.0073
3002.00,0.0074
3001.00,0.0073
3000.00,0.0070
2999.00,0.0067
2998.00,0.0063
2997.00,0.0058
2996.00,0.0054
2995.00,0.0051
2994.00,0.0048
2993.00,0.0045
2992.00,0.0044
2991.00,0.0043
2990.00,0.0042
2989.00,0.0042
2988.00,0.0042
2987.00,0.0042
2986.00,0.0042
2985.00,0.0042
2984.00,0.0042
2983.00,0.0042
2982.00,0.0042
2981.00,0.0043
2980.00,0.0044
2979.00,0.0044
2978.00,0.0045
2977.00,0.0046
2976.00,0.0047
2975.00,0.0047
2974.00,0.0048
2973.00,0.0049
2972.00,0.0050
2971.00,0.0051
2970.00,0.0051
2969.00,0.0053
2968.00,0.0054
2967.00,0.0055
2966.00,0.0057
2965.00,0.0059
2964.00,0.0060
2963.00,0.0062
2962.00,0.0065
2961.00,0.0067
2960.00,0.0069
2959.00,0.0071
2958.00,0.0074
2957.00,0.0076
2956.00,0.0079
2955.00,0.0082
2954.00,0.0085
2953.00,0.0088
2952.00,0.0092
2951.00,0.0096
2950.00,0.0100
2949.00,0.0105
2948.00,0.0110
2947.00,0.0116
2946.00,0.0122
2945.00,0.0128
2944.00,0.0136
2943.00,0.0143
2942.00,0.0151
2941.00,0.0160
2940.00,0.0170
2939.00,0.0179
2938.00,0.0190
2937.00,0.0200
2936.00,0.0211
2935.00,0.0222
2934.00,0.0233
2933.00,0.0245
2932.00,0.0256
2931.00,0.0266
2930.00,0.0276
2929.00,0.0286
2928.00,0.0294
2927.00,0.0301
2926.00,0.0306
2925.00,0.0311
2924.00,0.0314
2923.00,0.0315
2922.00,0.0315
2921.00,0.0314
2920.00,0.0311
2919.00,0.0307
2918.00,0.0302
2917.00,0.0296
2916.00,0.0290
2915.00,0.0284
2914.00,0.0277
2913.00,0.0269
2912.00,0.0261
2911.00,0.0253
2910.00,0.0245
2909.00,0.0237
2908.00,0.0229
2907.00,0.0221
2906.00,0.0213
2905.00,0.0205
2904.00,0.0198
2903.00,0.0190
2902.00,0.0182
2901.00,0.0175
2900.00,0.0168
2899.00,0.0161
2898.00,0.0154
2897.00,0.0148
2896.00,0.0142
2895.00,0.0138
2894.00,0.0133
2893.00,0.0129
2892.00,0.0126
2891.00,0.0122
2890.00,0.0119
2889.00,0.0116
2888.00,0.0113
2887.00,0.0110
2886.00,0.0108
2885.00,0.0105
2884.00,0.0103
2883.00,0.0101
2882.00,0.0098
2881.00,0.0096
2880.00,0.0094
2879.00,0.0092
2878.00,0.0090
2877.00,0.0089
2876.00,0.0087
2875.00,0.0085
2874.00,0.0084
2873.00,0.0083
2872.00,0.0082
2871.00,0.0082
2870.00,0.0082
2869.00,0.0082
2868.00,0.0082
2867.00,0.0083
2866.00,0.0084
2865.00,0.0087
2864.00,0.0089
2863.00,0.0093
2862.00,0.0097
2861.00,0.0101
2860.00,0.0106
2859.00,0.0110
2858.00,0.0115
2857.00,0.0120
2856.00,0.0124
2855.00,0.0128
2854.00,0.0132
2853.00,0.0136
2852.00,0.0138
2851.00,0.0139
2850.00,0.0139
2849.00,0.0138
2848.00,0.0135
2847.00,0.0132
2846.00,0.0127
2845.00,0.0121
2844.00,0.0114
2843.00,0.0107
2842.00,0.0099
2841.00,0.0090
2840.00,0.0083
2839.00,0.0075
2838.00,0.0069
2837.00,0.0063
2836.00,0.0057
2835.00,0.0053
2834.00,0.0049
2833.00,0.0047
2832.00,0.0044
2831.00,0.0042
2830.00,0.0040
2829.00,0.0039
2828.00,0.0038
2827.00,0.0037
2826.00,0.0036
2825.00,0.0035
2824.00,0.0035
2823.00,0.0034
2822.00,0.0033
2821.00,0.0033
2820.00,0.0032
2819.00,0.0032
2818.00,0.0031
2817.00,0.0031
2816.00,0.0031
2815.00,0.0030
2814.00,0.0030
2813.00,0.0030
2812.00,0.0030
2811.00,0.0030
2810.00,0.0030
2809.00,0.0030
2808.00,0.0029
2807.00,0.0029
2806.00,0.0029
2805.00,0.0029
2804.00,0.0028
2803.00,0.0028
2802.00,0.0028
2801.00,0.0027
2800.00,0.0027
2799.00,0.0027
2798.00,0.0027
2797.00,0.0027
2796.00,0.0026
2795.00,0.0026
2794.00,0.0026
2793.00,0.0026
2792.00,0.0025
2791.00,0.0025
2790.00,0.0025
2789.00,0.0025
2788.00,0.0025
2787.00,0.0025
2786.00,0.0025
2785.00,0.0025
2784.00,0.0025
2783.00,0.0025
2782.00,0.0025
2781.00,0.0025
2780.00,0.0025
2779.00,0.0024
2778.00,0.0024
2777.00,0.0024
2776.00,0.0024
2775.00,0.0024
2774.00,0.0024
2773.00,0.0023
2772.00,0.0023
2771.00,0.0023
2770.00,0.0023
2769.00,0.0023
2768.00,0.0022
2767.00,0.0022
2766.00,0.0022
2765.00,0.0022
2764.00,0.0022
2763.00,0.0022
2762.00,0.0022
2761.00,0.0022
2760.00,0.0022
2759.00,0.0022
2758.00,0.0022
2757.00,0.0022
2756.00,0.0022
2755.00,0.0021
2754.00,0.0021
2753.00,0.0021
2752.00,0.0021
2751.00,0.0021
2750.00,0.0021
2749.00,0.0021
2748.00,0.0021
2747.00,0.0021
2746.00,0.0021
2745.00,0.0021
2744.00,0.0021
2743.00,0.0021
2742.00,0.0021
2741.00,0.0021
2740.00,0.0021
2739.00,0.0021
2738.00,0.0022
2737.00,0.0022
2736.00,0.0022
2735.00,0.0022
2734.00,0.0022
2733.00,0.0022
2732.00,0.0022
2731.00,0.0022
2730.00,0.0022
2729.00,0.0022
2728.00,0.0022
2727.00,0.0022
2726.00,0.0022
2725.00,0.0022
2724.00,0.0022
2723.00,0.0022
2722.00,0.0022
2721.00,0.0022
2720.00,0.0022
2719.00,0.0022
2718.00,0.0022
2717.00,0.0022
2716.00,0.0022
2715.00,0.0022
2714.00,0.0022
2713.00,0.0022
2712.00,0.0022
2711.00,0.0022
2710.00,0.0022
2709.00,0.0022
2708.00,0.0022
2707.00,0.0021
2706.00,0.0021
2705.00,0.0021
2704.00,0.0021
2703.00,0.0021
2702.00,0.0021
2701.00,0.0021
2700.00,0.0021
2699.00,0.0021
2698.00,0.0021
2697.00,0.0021
2696.00,0.0021
2695.00,0.0021
2694.00,0.0021
2693.00,0.0021
2692.00,0.0021
2691.00,0.0021
2690.00,0.0021
2689.00,0.0021
2688.00,0.0021
2687.00,0.0021
2686.00,0.0021
2685.00,0.0021
2684.00,0.0021
2683.00,0.0021
2682.00,0.0021
2681.00,0.0021
2680.00,0.0021
2679.00,0.0021
2678.00,0.0021
2677.00,0.0021
2676.00,0.0021
2675.00,0.0021
2674.00,0.0021
2673.00,0.0021
2672.00,0.0021
2671.00,0.0021
2670.00,0.0021
2669.00,0.0021
2668.00,0.0021
2667.00,0.0021
2666.00,0.0021
2665.00,0.0021
2664.00,0.0022
2663.00,0.0022
2662.00,0.0022
2661.00,0.0022
2660.00,0.0022
2659.00,0.0023
2658.00,0.0023
2657.00,0.0023
2656.00,0.0023
2655.00,0.0023
2654.00,0.0023
2653.00,0.0023
2652.00,0.0023
2651.00,0.0023
2650.00,0.0023
2649.00,0.0023
2648.00,0.0022
2647.00,0.0022
2646.00,0.0022
2645.00,0.0022
2644.00,0.0022
2643.00,0.0022
2642.00,0.0022
2641.00,0.0022
2640.00,0.0022
2639.00,0.0022
2638.00,0.0023
2637.00,0.0023
2636.00,0.0023
2635.00,0.0023
2634.00,0.0023
2633.00,0.0023
2632.00,0.0023
2631.00,0.0023
2630.00,0.0023
2629.00,0.0022
2628.00,0.0022
2627.00,0.0022
2626.00,0.0022
2625.00,0.0021
2624.00,0.0021
2623.00,0.0021
2622.00,0.0021
2621.00,0.0020
2620.00,0.0020
2619.00,0.0020
2618.00,0.0020
2617.00,0.0020
2616.00,0.0020
2615.00,0.0020
2614.00,0.0020
2613.00,0.0020
2612.00,0.0020
2611.00,0.0020
2610.00,0.0021
2609.00,0.0021
2608.00,0.0021
2607.00,0.0021
2606.00,0.0021
2605.00,0.0021
2604.00,0.0021
2603.00,0.0021
2602.00,0.0020
2601.00,0.0020
2600.00,0.0020
2599.00,0.0020
2598.00,0.0019
2597.00,0.0019
2596.00,0.0019
2595.00,0.0019
2594.00,0.0019
2593.00,0.0019
2592.00,0.0019
2591.00,0.0019
2590.00,0.0019
2589.00,0.0019
2588.00,0.0018
2587.00,0.0018
2586.00,0.0018
2585.00,0.0018
2584.00,0.0019
2583.00,0.0019
2582.00,0.0019
2581.00,0.0019
2580.00,0.0019
2579.00,0.0019
2578.00,0.0018
2577.00,0.0018
2576.00,0.0018
2575.00,0.0018
2574.00,0.0018
2573.00,0.0018
2572.00,0.0018
2571.00,0.0018
2570.00,0.0017
2569.00,0.0017
2568.00,0.0018
2567.00,0.0018
2566.00,0.0018
2565.00,0.0018
2564.00,0.0018
2563.00,0.0018
2562.00,0.0017
2561.00,0.0017
2560.00,0.0017
2559.00,0.0017
2558.00,0.0016
2557.00,0.0016
2556.00,0.0016
2555.00,0.0016
2554.00,0.0016
2553.00,0.0016
2552.00,0.0017
2551.00,0.0016
2550.00,0.0016
2549.00,0.0016
2548.00,0.0016
2547.00,0.0016
2546.00,0.0017
2545.00,0.0017
2544.00,0.0017
2543.00,0.0017
2542.00,0.0017
2541.00,0.0017
2540.00,0.0017
2539.00,0.0017
2538.00,0.0017
2537.00,0.0017
2536.00,0.0017
2535.00,0.0017
2534.00,0.0017
2533.00,0.0017
2532.00,0.0016
2531.00,0.0016
2530.00,0.0015
2529.00,0.0015
2528.00,0.0015
2527.00,0.0016
2526.00,0.0016
2525.00,0.0016
2524.00,0.0016
2523.00,0.0016
2522.00,0.0017
2521.00,0.0017
2520.00,0.0017
2519.00,0.0016
2518.00,0.0016
2517.00,0.0016
2516.00,0.0015
2515.00,0.0015
2514.00,0.0015
2513.00,0.0015
2512.00,0.0015
2511.00,0.0015
2510.00,0.0015
2509.00,0.0015
2508.00,0.0015
2507.00,0.0015
2506.00,0.0015
2505.00,0.0015
2504.00,0.0015
2503.00,0.0015
2502.00,0.0015
2501.00,0.0015
2500.00,0.0015
2499.00,0.0016
2498.00,0.0016
2497.00,0.0015
2496.00,0.0015
2495.00,0.0015
2494.00,0.0015
2493.00,0.0015
2492.00,0.0015
2491.00,0.0015
2490.00,0.0015
2489.00,0.0015
2488.00,0.0014
2487.00,0.0014
2486.00,0.0014
2485.00,0.0014
2484.00,0.0014
2483.00,0.0015
2482.00,0.0015
2481.00,0.0015
2480.00,0.0015
2479.00,0.0015
2478.00,0.0014
2477.00,0.0014
2476.00,0.0014
2475.00,0.0014
2474.00,0.0013
2473.00,0.0013
2472.00,0.0013
2471.00,0.0013
2470.00,0.0012
2469.00,0.0012
2468.00,0.0012
2467.00,0.0012
2466.00,0.0013
2465.00,0.0013
2464.00,0.0012
2463.00,0.0012
2462.00,0.0012
2461.00,0.0012
2460.00,0.0013
2459.00,0.0013
2458.00,0.0013
2457.00,0.0014
2456.00,0.0014
2455.00,0.0014
2454.00,0.0013
2453.00,0.0013
2452.00,0.0013
2451.00,0.0013
2450.00,0.0014
2449.00,0.0014
2448.00,0.0013
2447.00,0.0013
2446.00,0.0013
2445.00,0.0013
2444.00,0.0013
2443.00,0.0013
2442.00,0.0013
2441.00,0.0013
2440.00,0.0013
2439.00,0.0013
2438.00,0.0013
2437.00,0.0013
2436.00,0.0012
2435.00,0.0012
2434.00,0.0012
2433.00,0.0013
2432.00,0.0012
2431.00,0.0012
2430.00,0.0012
2429.00,0.0012
2428.00,0.0012
2427.00,0.0012
2426.00,0.0012
2425.00,0.0012
2424.00,0.0012
2423.00,0.0012
2422.00,0.0012
2421.00,0.0012
2420.00,0.0012
2419.00,0.0012
2418.00,0.0012
2417.00,0.0011
2416.00,0.0011
2415.00,0.0011
2414.00,0.0011
2413.00,0.0011
2412.00,0.0012
2411.00,0.0012
2410.00,0.0012
2409.00,0.0011
2408.00,0.0011
2407.00,0.0011
2406.00,0.0011
2405.00,0.0011
2404.00,0.0011
2403.00,0.0011
2402.00,0.0011
2401.00,0.0011
2400.00,0.0010
2399.00,0.0010
2398.00,0.0010
2397.00,0.0011
2396.00,0.0011
2395.00,0.0011
2394.00,0.0011
2393.00,0.0011
2392.00,0.0011
2391.00,0.0011
2390.00,0.0011
2389.00,0.0011
2388.00,0.0011
2387.00,0.0011
2386.00,0.0011
2385.00,0.0011
2384.00,0.0011
2383.00,0.0011
2382.00,0.0011
2381.00,0.0011
2380.00,0.0011
2379.00,0.0011
2378.00,0.0012
2377.00,0.0012
2376.00,0.0012
2375.00,0.0011
2374.00,0.0011
2373.00,0.0011
2372.00,0.0010
2371.00,0.0010
2370.00,0.0011
2369.00,0.0011
2368.00,0.0012
2367.00,0.0012
2366.00,0.0012
2365.00,0.0012
2364.00,0.0012
2363.00,0.0013
2362.00,0.0013
2361.00,0.0014
2360.00,0.0014
2359.00,0.0014
2358.00,0.0014
2357.00,0.0014
2356.00,0.0014
2355.00,0.0014
2354.00,0.0014
2353.00,0.0014
2352.00,0.0014
2351.00,0.0014
2350.00,0.0015
2349.00,0.0015
2348.00,0.0015
2347.00,0.0015
2346.00,0.0015
2345.00,0.0016
2344.00,0.0016
2343.00,0.0016
2342.00,0.0016
2341.00,0.0017
2340.00,0.0017
2339.00,0.0017
2338.00,0.0018
2337.00,0.0018
2336.00,0.0017
2335.00,0.0017
2334.00,0.0017
2333.00,0.0016
2332.00,0.0016
2331.00,0.0016
2330.00,0.0016
2329.00,0.0016
2328.00,0.0018
2327.00,0.0019
2326.00,0.0020
2325.00,0.0021
2324.00,0.0020
2323.00,0.0019
2322.00,0.0018
2321.00,0.0018
2320.00,0.0017
2319.00,0.0017
2318.00,0.0017
2317.00,0.0017
2316.00,0.0017
2315.00,0.0017
2314.00,0.0017
2313.00,0.0017
2312.00,0.0018
2311.00,0.0018
2310.00,0.0017
2309.00,0.0017
2308.00,0.0016
2307.00,0.0016
2306.00,0.0015
2305.00,0.0016
2304.00,0.0016
2303.00,0.0016
2302.00,0.0016
2301.00,0.0016
2300.00,0.0016
2299.00,0.0015
2298.00,0.0015
2297.00,0.0015
2296.00,0.0015
2295.00,0.0015
2294.00,0.0016
2293.00,0.0017
2292.00,0.0018
2291.00,0.0018
2290.00,0.0019
2289.00,0.0019
2288.00,0.0019
2287.00,0.0018
2286.00,0.0017
2285.00,0.0016
2284.00,0.0016
2283.00,0.0015
2282.00,0.0015
2281.00,0.0015
2280.00,0.0014
2279.00,0.0014
2278.00,0.0014
2277.00,0.0013
2276.00,0.0013
2275.00,0.0013
2274.00,0.0013
2273.00,0.0013
2272.00,0.0013
2271.00,0.0013
2270.00,0.0013
2269.00,0.0013
2268.00,0.0013
2267.00,0.0014
2266.00,0.0014
2265.00,0.0014
2264.00,0.0014
2263.00,0.0013
2262.00,0.0013
2261.00,0.0013
2260.00,0.0014
2259.00,0.0014
2258.00,0.0015
2257.00,0.0014
2256.00,0.0014
2255.00,0.0013
2254.00,0.0012
2253.00,0.0012
2252.00,0.0012
2251.00,0.0012
2250.00,0.0012
2249.00,0.0012
2248.00,0.0012
2247.00,0.0011
2246.00,0.0011
2245.00,0.0011
2244.00,0.0012
2243.00,0.0012
2242.00,0.0013
2241.00,0.0013
2240.00,0.0013
2239.00,0.0014
2238.00,0.0014
2237.00,0.0013
2236.00,0.0012
2235.00,0.0012
2234.00,0.0012
2233.00,0.0012
2232.00,0.0012
2231.00,0.0012
2230.00,0.0012
2229.00,0.0011
2228.00,0.0011
2227.00,0.0011
2226.00,0.0011
2225.00,0.0012
2224.00,0.0012
2223.00,0.0012
2222.00,0.0011
2221.00,0.0010
2220.00,0.0010
2219.00,0.0010
2218.00,0.0010
2217.00,0.0010
2216.00,0.0010
2215.00,0.0010
2214.00,0.0010
2213.00,0.0009
2212.00,0.0009
2211.00,0.0009
2210.00,0.0009
2209.00,0.0010
2208.00,0.0011
2207.00,0.0010
2206.00,0.0010
2205.00,0.0010
2204.00,0.0010
2203.00,0.0010
2202.00,0.0011
2201.00,0.0012
2200.00,0.0012
2199.00,0.0012
2198.00,0.0011
2197.00,0.0011
2196.00,0.0011
2195.00,0.0011
2194.00,0.0012
2193.00,0.0012
2192.00,0.0012
2191.00,0.0011
2190.00,0.0010
2189.00,0.0009
2188.00,0.0009
2187.00,0.0010
2186.00,0.0010
2185.00,0.0010
2184.00,0.0009
2183.00,0.0008
2182.00,0.0008
2181.00,0.0008
2180.00,0.0008
2179.00,0.0009
2178.00,0.0008
2177.00,0.0008
2176.00,0.0008
2175.00,0.0009
2174.00,0.0010
2173.00,0.0011
2172.00,0.0012
2171.00,0.0012
2170.00,0.0011
2169.00,0.0010
2168.00,0.0010
2167.00,0.0010
2166.00,0.0012
2165.00,0.0012
2164.00,0.0012
2163.00,0.0011
2162.00,0.0007
2161.00,0.0001
2160.00,-0.0006
2159.00,-0.0012
2158.00,-0.0014
2157.00,-0.0012
2156.00,-0.0008
2155.00,-0.0005
2154.00,-0.0004
2153.00,-0.0003
2152.00,-0.0003
2151.00,-0.0002
2150.00,0.0000
2149.00,0.0002
2148.00,0.0002
2147.00,0.0001
2146.00,0.0000
2145.00,-0.0000
2144.00,-0.0000
2143.00,0.0000
2142.00,0.0001
2141.00,0.0001
2140.00,0.0001
2139.00,0.0001
2138.00,0.0000
2137.00,-0.0001
2136.00,-0.0003
2135.00,-0.0004
2134.00,-0.0004
2133.00,-0.0003
2132.00,-0.0001
2131.00,0.0000
2130.00,0.0001
2129.00,0.0002
2128.00,0.0002
2127.00,0.0002
2126.00,0.0003
2125.00,0.0003
2124.00,0.0004
2123.00,0.0004
2122.00,0.0005
2121.00,0.0006
2120.00,0.0006
2119.00,0.0006
2118.00,0.0006
2117.00,0.0006
2116.00,0.0007
2115.00,0.0007
2114.00,0.0007
2113.00,0.0007
2112.00,0.0007
2111.00,0.0007
2110.00,0.0007
2109.00,0.0006
2108.00,0.0006
2107.00,0.0006
2106.00,0.0006
2105.00,0.0007
2104.00,0.0007
2103.00,0.0007
2102.00,0.0006
2101.00,0.0006
2100.00,0.0006
2099.00,0.0006
2098.00,0.0006
2097.00,0.0005
2096.00,0.0004
2095.00,0.0004
2094.00,0.0004
2093.00,0.0005
2092.00,0.0006
2091.00,0.0006
2090.00,0.0006
2089.00,0.0006
2088.00,0.0006
2087.00,0.0007
2086.00,0.0007
2085.00,0.0008
2084.00,0.0009
2083.00,0.0008
2082.00,0.0008
2081.00,0.0007
2080.00,0.0007
2079.00,0.0007
2078.00,0.0007
2077.00,0.0008
2076.00,0.0007
2075.00,0.0007
2074.00,0.0006
2073.00,0.0006
2072.00,0.0006
2071.00,0.0006
2070.00,0.0006
2069.00,0.0006
2068.00,0.0005
2067.00,0.0005
2066.00,0.0005
2065.00,0.0004
2064.00,0.0004
2063.00,0.0003
2062.00,0.0002
2061.00,0.0002
2060.00,0.0002
2059.00,0.0003
2058.00,0.0004
2057.00,0.0004
2056.00,0.0004
2055.00,0.0003
2054.00,0.0004
2053.00,0.0006
2052.00,0.0008
2051.00,0.0008
2050.00,0.0007
2049.00,0.0005
2048.00,0.0004
2047.00,0.0003
2046.00,0.0002
2045.00,0.0002
2044.00,0.0003
2043.00,0.0004
2042.00,0.0004
2041.00,0.0004
2040.00,0.0004
2039.00,0.0004
2038.00,0.0003
2037.00,0.0001
2036.00,0.0000
2035.00,-0.0000
2034.00,-0.0001
2033.00,-0.0000
2032.00,-0.0000
2031.00,-0.0000
2030.00,-0.0001
2029.00,-0.0001
2028.00,-0.0000
2027.00,0.0000
2026.00,0.0000
2025.00,-0.0000
2024.00,-0.0001
2023.00,-0.0002
2022.00,-0.0002
2021.00,-0.0002
2020.00,-0.0002
2019.00,-0.0002
2018.00,-0.0002
2017.00,-0.0001
2016.00,0.0001
2015.00,0.0004
2014.00,0.0005
2013.00,0.0005
2012.00,0.0005
2011.00,0.0004
2010.00,0.0003
2009.00,0.0001
2008.00,-0.0000
2007.00,-0.0001
2006.00,-0.0002
2005.00,-0.0002
2004.00,-0.0002
2003.00,-0.0002
2002.00,-0.0001
2001.00,-0.0001
2000.00,0.0000
1999.00,0.0002
1998.00,0.0003
1997.00,0.0004
1996.00,0.0005
1995.00,0.0005
1994.00,0.0005
1993.00,0.0006
1992.00,0.0007
1991.00,0.0007
1990.00,0.0007
1989.00,0.0006
1988.00,0.0006
1987.00,0.0006
1986.00,0.0007
1985.00,0.0008
1984.00,0.0010
1983.00,0.0012
1982.00,0.0014
1981.00,0.0014
1980.00,0.0012
1979.00,0.0009
1978.00,0.0005
1977.00,0.0004
1976.00,0.0004
1975.00,0.0004
1974.00,0.0005
1973.00,0.0005
1972.00,0.0006
1971.00,0.0007
1970.00,0.0007
1969.00,0.0008
1968.00,0.0009
1967.00,0.0011
1966.00,0.0012
1965.00,0.0014
1964.00,0.0016
1963.00,0.0018
1962.00,0.0018
1961.00,0.0019
1960.00,0.0020
1959.00,0.0021
1958.00,0.0022
1957.00,0.0023
1956.00,0.0023
1955.00,0.0023
1954.00,0.0023
1953.00,0.0024
1952.00,0.0026
1951.00,0.0027
1950.00,0.0029
1949.00,0.0030
1948.00,0.0032
1947.00,0.0034
1946.00,0.0035
1945.00,0.0035
1944.00,0.0035
1943.00,0.0034
1942.00,0.0034
1941.00,0.0034
1940.00,0.0034
1939.00,0.0033
1938.00,0.0032
1937.00,0.0030
1936.00,0.0027
1935.00,0.0025
1934.00,0.0022
1933.00,0.0020
1932.00,0.0018
1931.00,0.0015
1930.00,0.0013
1929.00,0.0012
1928.00,0.0012
1927.00,0.0011
1926.00,0.0011
1925.00,0.0011
1924.00,0.0011
1923.00,0.0011
1922.00,0.0011
1921.00,0.0010
1920.00,0.0010
1919.00,0.0009
1918.00,0.0008
1917.00,0.0007
1916.00,0.0007
1915.00,0.0008
1914.00,0.0008
1913.00,0.0009
1912.00,0.0009
1911.00,0.0009
1910.00,0.0009
1909.00,0.0009
1908.00,0.0009
1907.00,0.0009
1906.00,0.0009
1905.00,0.0010
1904.00,0.0010
1903.00,0.0010
1902.00,0.0010
1901.00,0.0010
1900.00,0.0011
1899.00,0.0012
1898.00,0.0013
1897.00,0.0014
1896.00,0.0015
1895.00,0.0016
1894.00,0.0017
1893.00,0.0018
1892.00,0.0019
1891.00,0.0020
1890.00,0.0021
1889.00,0.0023
1888.00,0.0024
1887.00,0.0025
1886.00,0.0026
1885.00,0.0027
1884.00,0.0027
1883.00,0.0028
1882.00,0.0028
1881.00,0.0029
1880.00,0.0029
1879.00,0.0029
1878.00,0.0030
1877.00,0.0030
1876.00,0.0031
1875.00,0.0032
1874.00,0.0033
1873.00,0.0034
1872.00,0.0034
1871.00,0.0034
1870.00,0.0034
1869.00,0.0033
1868.00,0.0033
1867.00,0.0033
1866.00,0.0032
1865.00,0.0031
1864.00,0.0029
1863.00,0.0028
1862.00,0.0026
1861.00,0.0025
1860.00,0.0023
1859.00,0.0022
1858.00,0.0020
1857.00,0.0019
1856.00,0.0017
1855.00,0.0016
1854.00,0.0015
1853.00,0.0014
1852.00,0.0014
1851.00,0.0013
1850.00,0.0013
1849.00,0.0012
1848.00,0.0012
1847.00,0.0012
1846.00,0.0011
1845.00,0.0011
1844.00,0.0011
1843.00,0.0011
1842.00,0.0011
1841.00,0.0011
1840.00,0.0011
1839.00,0.0011
1838.00,0.0011
1837.00,0.0011
1836.00,0.0012
1835.00,0.0012
1834.00,0.0012
1833.00,0.0013
1832.00,0.0013
1831.00,0.0014
1830.00,0.0014
1829.00,0.0015
1828.00,0.0016
1827.00,0.0017
1826.00,0.0018
1825.00,0.0019
1824.00,0.0019
1823.00,0.0020
1822.00,0.0021
1821.00,0.0022
1820.00,0.0023
1819.00,0.0024
1818.00,0.0024
1817.00,0.0025
1816.00,0.0027
1815.00,0.0028
1814.00,0.0029
1813.00,0.0030
1812.00,0.0031
1811.00,0.0033
1810.00,0.0034
1809.00,0.0036
1808.00,0.0037
1807.00,0.0038
1806.00,0.0039
1805.00,0.0040
1804.00,0.0041
1803.00,0.0041
1802.00,0.0041
1801.00,0.0041
1800.00,0.0040
1799.00,0.0039
1798.00,0.0038
1797.00,0.0037
1796.00,0.0035
1795.00,0.0033
1794.00,0.0031
1793.00,0.0030
1792.00,0.0028
1791.00,0.0027
1790.00,0.0025
1789.00,0.0024
1788.00,0.0024
1787.00,0.0023
1786.00,0.0023
1785.00,0.0022
1784.00,0.0022
1783.00,0.0022
1782.00,0.0022
1781.00,0.0023
1780.00,0.0023
1779.00,0.0024
1778.00,0.0024
1777.00,0.0024
1776.00,0.0025
1775.00,0.0025
1774.00,0.0025
1773.00,0.0025
1772.00,0.0026
1771.00,0.0026
1770.00,0.0026
1769.00,0.0026
1768.00,0.0026
1767.00,0.0026
1766.00,0.0027
1765.00,0.0028
1764.00,0.0029
1763.00,0.0029
1762.00,0.0030
1761.00,0.0031
1760.00,0.0032
1759.00,0.0034
1758.00,0.0035
1757.00,0.0037
1756.00,0.0039
1755.00,0.0041
1754.00,0.0043
1753.00,0.0044
1752.00,0.0046
1751.00,0.0048
1750.00,0.0050
1749.00,0.0052
1748.00,0.0053
1747.00,0.0055
1746.00,0.0056
1745.00,0.0057
1744.00,0.0058
1743.00,0.0059
1742.00,0.0059
1741.00,0.0060
1740.00,0.0061
1739.00,0.0061
1738.00,0.0061
1737.00,0.0060
1736.00,0.0059
1735.00,0.0059
1734.00,0.0058
1733.00,0.0058
1732.00,0.0057
1731.00,0.0056
1730.00,0.0055
1729.00,0.0053
1728.00,0.0052
1727.00,0.0050
1726.00,0.0049
1725.00,0.0048
1724.00,0.0047
1723.00,0.0046
1722.00,0.0045
1721.00,0.0044
1720.00,0.0042
1719.00,0.0041
1718.00,0.0040
1717.00,0.0040
1716.00,0.0040
1715.00,0.0039
1714.00,0.0039
1713.00,0.0038
1712.00,0.0038
1711.00,0.0038
1710.00,0.0038
1709.00,0.0037
1708.00,0.0037
1707.00,0.0038
1706.00,0.0038
1705.00,0.0038
1704.00,0.0038
1703.00,0.0038
1702.00,0.0038
1701.00,0.0039
1700.00,0.0039
1699.00,0.0040
1698.00,0.0040
1697.00,0.0041
1696.00,0.0043
1695.00,0.0045
1694.00,0.0047
1693.00,0.0049
1692.00,0.0050
1691.00,0.0052
1690.00,0.0054
1689.00,0.0055
1688.00,0.0057
1687.00,0.0057
1686.00,0.0058
1685.00,0.0061
1684.00,0.0066
1683.00,0.0069
1682.00,0.0071
1681.00,0.0071
1680.00,0.0071
1679.00,0.0071
1678.00,0.0072
1677.00,0.0073
1676.00,0.0074
1675.00,0.0076
1674.00,0.0077
1673.00,0.0077
1672.00,0.0077
1671.00,0.0077
1670.00,0.0078
1669.00,0.0079
1668.00,0.0080
1667.00,0.0079
1666.00,0.0078
1665.00,0.0077
1664.00,0.0077
1663.00,0.0076
1662.00,0.0075
1661.00,0.0074
1660.00,0.0073
1659.00,0.0071
1658.00,0.0069
1657.00,0.0067
1656.00,0.0065
1655.00,0.0063
1654.00,0.0061
1653.00,0.0060
1652.00,0.0058
1651.00,0.0057
1650.00,0.0055
1649.00,0.0054
1648.00,0.0052
1647.00,0.0051
1646.00,0.0049
1645.00,0.0048
1644.00,0.0046
1643.00,0.0045
1642.00,0.0044
1641.00,0.0043
1640.00,0.0042
1639.00,0.0041
1638.00,0.0040
1637.00,0.0039
1636.00,0.0038
1635.00,0.0038
1634.00,0.0037
1633.00,0.0037
1632.00,0.0036
1631.00,0.0036
1630.00,0.0036
1629.00,0.0036
1628.00,0.0036
1627.00,0.0037
1626.00,0.0037
1625.00,0.0038
1624.00,0.0038
1623.00,0.0039
1622.00,0.0040
1621.00,0.0040
1620.00,0.0040
1619.00,0.0040
1618.00,0.0041
1617.00,0.0043
1616.00,0.0045
1615.00,0.0048
1614.00,0.0050
1613.00,0.0054
1612.00,0.0058
1611.00,0.0066
1610.00,0.0076
1609.00,0.0090
1608.00,0.0109
1607.00,0.0132
1606.00,0.0158
1605.00,0.0187
1604.00,0.0215
1603.00,0.0239
1602.00,0.0254
1601.00,0.0257
1600.00,0.0246
1599.00,0.0225
1598.00,0.0198
1597.00,0.0170
1596.00,0.0146
1595.00,0.0126
1594.00,0.0111
1593.00,0.0099
1592.00,0.0090
1591.00,0.0083
1590.00,0.0079
1589.00,0.0077
1588.00,0.0079
1587.00,0.0085
1586.00,0.0094
1585.00,0.0103
1584.00,0.0109
1583.00,0.0109
1582.00,0.0102
1581.00,0.0091
1580.00,0.0078
1579.00,0.0067
1578.00,0.0058
1577.00,0.0051
1576.00,0.0046
1575.00,0.0042
1574.00,0.0039
1573.00,0.0037
1572.00,0.0036
1571.00,0.0034
1570.00,0.0033
1569.00,0.0031
1568.00,0.0030
1567.00,0.0030
1566.00,0.0029
1565.00,0.0029
1564.00,0.0028
1563.00,0.0028
1562.00,0.0028
1561.00,0.0028
1560.00,0.0028
1559.00,0.0028
1558.00,0.0028
1557.00,0.0029
1556.00,0.0030
1555.00,0.0031
1554.00,0.0032
1553.00,0.0033
1552.00,0.0034
1551.00,0.0035
1550.00,0.0036
1549.00,0.0038
1548.00,0.0039
1547.00,0.0040
1546.00,0.0040
1545.00,0.0041
1544.00,0.0041
1543.00,0.0041
1542.00,0.0041
1541.00,0.0041
1540.00,0.0041
1539.00,0.0041
1538.00,0.0039
1537.00,0.0038
1536.00,0.0037
1535.00,0.0036
1534.00,0.0035
1533.00,0.0033
1532.00,0.0032
1531.00,0.0031
1530.00,0.0031
1529.00,0.0030
1528.00,0.0029
1527.00,0.0029
1526.00,0.0028
1525.00,0.0028
1524.00,0.0028
1523.00,0.0028
1522.00,0.0028
1521.00,0.0028
1520.00,0.0028
1519.00,0.0029
1518.00,0.0029
1517.00,0.0030
1516.00,0.0031
1515.00,0.0032
1514.00,0.0033
1513.00,0.0033
1512.00,0.0034
1511.00,0.0036
1510.00,0.0036
1509.00,0.0037
1508.00,0.0040
1507.00,0.0044
1506.00,0.0050
1505.00,0.0056
1504.00,0.0061
1503.00,0.0068
1502.00,0.0078
1501.00,0.0092
1500.00,0.0114
1499.00,0.0149
1498.00,0.0207
1497.00,0.0298
1496.00,0.0414
1495.00,0.0524
1494.00,0.0598
1493.00,0.0626
1492.00,0.0605
1491.00,0.0538
1490.00,0.0444
1489.00,0.0352
1488.00,0.0280
1487.00,0.0228
1486.00,0.0189
1485.00,0.0159
1484.00,0.0136
1483.00,0.0117
1482.00,0.0102
1481.00,0.0091
1480.00,0.0083
1479.00,0.0078
1478.00,0.0074
1477.00,0.0071
1476.00,0.0069
1475.00,0.0068
1474.00,0.0067
1473.00,0.0067
1472.00,0.0069
1471.00,0.0071
1470.00,0.0073
1469.00,0.0075
1468.00,0.0077
1467.00,0.0080
1466.00,0.0083
1465.00,0.0088
1464.00,0.0093
1463.00,0.0099
1462.00,0.0104
1461.00,0.0111
1460.00,0.0123
1459.00,0.0145
1458.00,0.0198
1457.00,0.0296
1456.00,0.0414
1455.00,0.0512
1454.00,0.0585
1453.00,0.0631
1452.00,0.0646
1451.00,0.0627
1450.00,0.0584
1449.00,0.0534
1448.00,0.0487
1447.00,0.0448
1446.00,0.0414
1445.00,0.0383
1444.00,0.0353
1443.00,0.0324
1442.00,0.0298
1441.00,0.0274
1440.00,0.0253
1439.00,0.0234
1438.00,0.0214
1437.00,0.0195
1436.00,0.0175
1435.00,0.0158
1434.00,0.0143
1433.00,0.0130
1432.00,0.0119
1431.00,0.0109
1430.00,0.0101
1429.00,0.0094
1428.00,0.0089
1427.00,0.0085
1426.00,0.0082
1425.00,0.0079
1424.00,0.0077
1423.00,0.0074
1422.00,0.0072
1421.00,0.0070
1420.00,0.0068
1419.00,0.0065
1418.00,0.0064
1417.00,0.0063
1416.00,0.0061
1415.00,0.0060
1414.00,0.0059
1413.00,0.0058
1412.00,0.0057
1411.00,0.0056
1410.00,0.0056
1409.00,0.0056
1408.00,0.0055
1407.00,0.0055
1406.00,0.0055
1405.00,0.0055
1404.00,0.0056
1403.00,0.0056
1402.00,0.0056
1401.00,0.0057
1400.00,0.0057
1399.00,0.0058
1398.00,0.0058
1397.00,0.0059
1396.00,0.0060
1395.00,0.0063
1394.00,0.0065
1393.00,0.0068
1392.00,0.0071
1391.00,0.0074
1390.00,0.0078
1389.00,0.0083
1388.00,0.0088
1387.00,0.0094
1386.00,0.0099
1385.00,0.0104
1384.00,0.0108
1383.00,0.0112
1382.00,0.0116
1381.00,0.0120
1380.00,0.0124
1379.00,0.0128
1378.00,0.0131
1377.00,0.0135
1376.00,0.0138
1375.00,0.0141
1374.00,0.0143
1373.00,0.0145
1372.00,0.0145
1371.00,0.0144
1370.00,0.0143
1369.00,0.0142
1368.00,0.0141
1367.00,0.0140
1366.00,0.0138
1365.00,0.0137
1364.00,0.0135
1363.00,0.0134
1362.00,0.0133
1361.00,0.0132
1360.00,0.0129
1359.00,0.0127
1358.00,0.0124
1357.00,0.0122
1356.00,0.0120
1355.00,0.0119
1354.00,0.0119
1353.00,0.0118
1352.00,0.0118
1351.00,0.0118
1350.00,0.0118
1349.00,0.0117
1348.00,0.0116
1347.00,0.0115
1346.00,0.0114
1345.00,0.0112
1344.00,0.0109
1343.00,0.0107
1342.00,0.0105
1341.00,0.0104
1340.00,0.0103
1339.00,0.0102
1338.00,0.0103
1337.00,0.0104
1336.00,0.0105
1335.00,0.0107
1334.00,0.0110
1333.00,0.0112
1332.00,0.0115
1331.00,0.0118
1330.00,0.0120
1329.00,0.0122
1328.00,0.0122
1327.00,0.0121
1326.00,0.0120
1325.00,0.0118
1324.00,0.0116
1323.00,0.0115
1322.00,0.0114
1321.00,0.0113
1320.00,0.0113
1319.00,0.0113
1318.00,0.0114
1317.00,0.0116
1316.00,0.0117
1315.00,0.0118
1314.00,0.0119
1313.00,0.0120
1312.00,0.0120
1311.00,0.0119
1310.00,0.0118
1309.00,0.0117
1308.00,0.0115
1307.00,0.0114
1306.00,0.0112
1305.00,0.0110
1304.00,0.0109
1303.00,0.0108
1302.00,0.0106
1301.00,0.0106
1300.00,0.0105
1299.00,0.0105
1298.00,0.0105
1297.00,0.0106
1296.00,0.0107
1295.00,0.0108
1294.00,0.0109
1293.00,0.0109
1292.00,0.0108
1291.00,0.0107
1290.00,0.0105
1289.00,0.0104
1288.00,0.0102
1287.00,0.0100
1286.00,0.0099
1285.00,0.0098
1284.00,0.0097
1283.00,0.0096
1282.00,0.0095
1281.00,0.0094
1280.00,0.0093
1279.00,0.0092
1278.00,0.0091
1277.00,0.0089
1276.00,0.0087
1275.00,0.0085
1274.00,0.0083
1273.00,0.0081
1272.00,0.0080
1271.00,0.0078
1270.00,0.0076
1269.00,0.0075
1268.00,0.0074
1267.00,0.0072
1266.00,0.0072
1265.00,0.0071
1264.00,0.0070
1263.00,0.0069
1262.00,0.0068
1261.00,0.0068
1260.00,0.0068
1259.00,0.0068
1258.00,0.0068
1257.00,0.0068
1256.00,0.0068
1255.00,0.0068
1254.00,0.0069
1253.00,0.0069
1252.00,0.0069
1251.00,0.0070
1250.00,0.0070
1249.00,0.0070
1248.00,0.0070
1247.00,0.0071
1246.00,0.0071
1245.00,0.0071
1244.00,0.0070
1243.00,0.0070
1242.00,0.0070
1241.00,0.0070
1240.00,0.0070
1239.00,0.0069
1238.00,0.0069
1237.00,0.0069
1236.00,0.0068
1235.00,0.0068
1234.00,0.0068
1233.00,0.0068
1232.00,0.0068
1231.00,0.0069
1230.00,0.0069
1229.00,0.0069
1228.00,0.0070
1227.00,0.0070
1226.00,0.0070
1225.00,0.0070
1224.00,0.0070
1223.00,0.0070
1222.00,0.0070
1221.00,0.0070
1220.00,0.0070
1219.00,0.0070
1218.00,0.0070
1217.00,0.0070
1216.00,0.0070
1215.00,0.0071
1214.00,0.0072
1213.00,0.0072
1212.00,0.0073
1211.00,0.0075
1210.00,0.0076
1209.00,0.0078
1208.00,0.0079
1207.00,0.0081
1206.00,0.0083
1205.00,0.0086
1204.00,0.0088
1203.00,0.0090
1202.00,0.0093
1201.00,0.0096
1200.00,0.0099
1199.00,0.0101
1198.00,0.0103
1197.00,0.0104
1196.00,0.0105
1195.00,0.0105
1194.00,0.0105
1193.00,0.0105
1192.00,0.0106
1191.00,0.0106
1190.00,0.0107
1189.00,0.0108
1188.00,0.0111
1187.00,0.0115
1186.00,0.0120
1185.00,0.0126
1184.00,0.0133
1183.00,0.0139
1182.00,0.0142
1181.00,0.0142
1180.00,0.0139
1179.00,0.0132
1178.00,0.0123
1177.00,0.0114
1176.00,0.0106
1175.00,0.0100
1174.00,0.0095
1173.00,0.0092
1172.00,0.0090
1171.00,0.0089
1170.00,0.0088
1169.00,0.0088
1168.00,0.0087
1167.00,0.0087
1166.00,0.0087
1165.00,0.0088
1164.00,0.0089
1163.00,0.0092
1162.00,0.0096
1161.00,0.0101
1160.00,0.0108
1159.00,0.0116
1158.00,0.0125
1157.00,0.0134
1156.00,0.0141
1155.00,0.0145
1154.00,0.0143
1153.00,0.0137
1152.00,0.0128
1151.00,0.0117
1150.00,0.0107
1149.00,0.0098
1148.00,0.0090
1147.00,0.0084
1146.00,0.0080
1145.00,0.0076
1144.00,0.0073
1143.00,0.0070
1142.00,0.0068
1141.00,0.0066
1140.00,0.0065
1139.00,0.0064
1138.00,0.0063
1137.00,0.0062
1136.00,0.0061
1135.00,0.0061
1134.00,0.0061
1133.00,0.0061
1132.00,0.0061
1131.00,0.0062
1130.00,0.0062
1129.00,0.0062
1128.00,0.0062
1127.00,0.0062
1126.00,0.0062
1125.00,0.0062
1124.00,0.0063
1123.00,0.0064
1122.00,0.0065
1121.00,0.0067
1120.00,0.0069
1119.00,0.0070
1118.00,0.0072
1117.00,0.0074
1116.00,0.0076
1115.00,0.0078
1114.00,0.0080
1113.00,0.0081
1112.00,0.0081
1111.00,0.0081
1110.00,0.0081
1109.00,0.0080
1108.00,0.0079
1107.00,0.0079
1106.00,0.0078
1105.00,0.0078
1104.00,0.0078
1103.00,0.0079
1102.00,0.0080
1101.00,0.0081
1100.00,0.0082
1099.00,0.0083
1098.00,0.0084
1097.00,0.0085
1096.00,0.0086
1095.00,0.0087
1094.00,0.0088
1093.00,0.0089
1092.00,0.0091
1091.00,0.0093
1090.00,0.0095
1089.00,0.0097
1088.00,0.0099
1087.00,0.0101
1086.00,0.0104
1085.00,0.0108
1084.00,0.0112
1083.00,0.0116
1082.00,0.0120
1081.00,0.0125
1080.00,0.0129
1079.00,0.0134
1078.00,0.0138
1077.00,0.0144
1076.00,0.0150
1075.00,0.0157
1074.00,0.0165
1073.00,0.0173
1072.00,0.0180
1071.00,0.0186
1070.00,0.0190
1069.00,0.0191
1068.00,0.0190
1067.00,0.0187
1066.00,0.0182
1065.00,0.0176
1064.00,0.0168
1063.00,0.0161
1062.00,0.0154
1061.00,0.0149
1060.00,0.0143
1059.00,0.0138
1058.00,0.0133
1057.00,0.0129
1056.00,0.0125
1055.00,0.0121
1054.00,0.0118
1053.00,0.0115
1052.00,0.0112
1051.00,0.0109
1050.00,0.0106
1049.00,0.0104
1048.00,0.0102
1047.00,0.0101
1046.00,0.0100
1045.00,0.0099
1044.00,0.0098
1043.00,0.0098
1042.00,0.0098
1041.00,0.0100
1040.00,0.0103
1039.00,0.0108
1038.00,0.0116
1037.00,0.0128
1036.00,0.0145
1035.00,0.0167
1034.00,0.0195
1033.00,0.0226
1032.00,0.0257
1031.00,0.0286
1030.00,0.0309
1029.00,0.0323
1028.00,0.0327
1027.00,0.0320
1026.00,0.0304
1025.00,0.0282
1024.00,0.0259
1023.00,0.0238
1022.00,0.0220
1021.00,0.0205
1020.00,0.0193
1019.00,0.0182
1018.00,0.0173
1017.00,0.0164
1016.00,0.0157
1015.00,0.0151
1014.00,0.0145
1013.00,0.0140
1012.00,0.0135
1011.00,0.0132
1010.00,0.0129
1009.00,0.0128
1008.00,0.0128
1007.00,0.0131
1006.00,0.0134
1005.00,0.0138
1004.00,0.0140
1003.00,0.0140
1002.00,0.0137
1001.00,0.0130
1000.00,0.0121
999.00,0.0113
998.00,0.0107
997.00,0.0102
996.00,0.0100
995.00,0.0099
994.00,0.0099
993.00,0.0099
992.00,0.0100
991.00,0.0100
990.00,0.0102
989.00,0.0103
988.00,0.0106
987.00,0.0108
986.00,0.0111
985.00,0.0114
984.00,0.0118
983.00,0.0121
982.00,0.0123
981.00,0.0125
980.00,0.0125
979.00,0.0124
978.00,0.0122
977.00,0.0120
976.00,0.0118
975.00,0.0115
974.00,0.0114
973.00,0.0113
972.00,0.0114
971.00,0.0116
970.00,0.0119
969.00,0.0123
968.00,0.0128
967.00,0.0132
966.00,0.0135
965.00,0.0137
964.00,0.0138
963.00,0.0136
962.00,0.0132
961.00,0.0127
960.00,0.0121
959.00,0.0116
958.00,0.0111
957.00,0.0107
956.00,0.0105
955.00,0.0103
954.00,0.0101
953.00,0.0101
952.00,0.0101
951.00,0.0102
950.00,0.0103
949.00,0.0105
948.00,0.0107
947.00,0.0108
946.00,0.0110
945.00,0.0111
944.00,0.0112
943.00,0.0112
942.00,0.0111
941.00,0.0109
940.00,0.0106
939.00,0.0103
938.00,0.0100
937.00,0.0097
936.00,0.0093
935.00,0.0090
934.00,0.0087
933.00,0.0084
932.00,0.0082
931.00,0.0080
930.00,0.0078
929.00,0.0078
928.00,0.0078
927.00,0.0078
926.00,0.0079
925.00,0.0081
924.00,0.0082
923.00,0.0084
922.00,0.0086
921.00,0.0088
920.00,0.0092
919.00,0.0096
918.00,0.0101
917.00,0.0107
916.00,0.0115
915.00,0.0125
914.00,0.0137
913.00,0.0150
912.00,0.0165
911.00,0.0180
910.00,0.0194
909.00,0.0207
908.00,0.0216
907.00,0.0221
906.00,0.0221
905.00,0.0216
904.00,0.0207
903.00,0.0194
902.00,0.0178
901.00,0.0161
900.00,0.0145
899.00,0.0130
898.00,0.0117
897.00,0.0107
896.00,0.0099
895.00,0.0092
894.00,0.0087
893.00,0.0083
892.00,0.0080
891.00,0.0077
890.00,0.0075
889.00,0.0073
888.00,0.0071
887.00,0.0069
886.00,0.0068
885.00,0.0066
884.00,0.0065
883.00,0.0065
882.00,0.0064
881.00,0.0063
880.00,0.0062
879.00,0.0061
878.00,0.0060
877.00,0.0059
876.00,0.0059
875.00,0.0059
874.00,0.0059
873.00,0.0058
872.00,0.0058
871.00,0.0058
870.00,0.0058
869.00,0.0057
868.00,0.0057
867.00,0.0057
866.00,0.0057
865.00,0.0056
864.00,0.0056
863.00,0.0056
862.00,0.0055
861.00,0.0055
860.00,0.0056
859.00,0.0056
858.00,0.0056
857.00,0.0057
856.00,0.0058
855.00,0.0060
854.00,0.0061
853.00,0.0064
852.00,0.0068
851.00,0.0073
850.00,0.0078
849.00,0.0084
848.00,0.0091
847.00,0.0098
846.00,0.0104
845.00,0.0109
844.00,0.0114
843.00,0.0116
842.00,0.0117
841.00,0.0116
840.00,0.0113
839.00,0.0109
838.00,0.0104
837.00,0.0098
836.00,0.0091
835.00,0.0084
834.00,0.0076
833.00,0.0070
832.00,0.0065
831.00,0.0061
830.00,0.0059
829.00,0.0057
828.00,0.0056
827.00,0.0056
826.00,0.0055
825.00,0.0054
824.00,0.0054
823.00,0.0054
822.00,0.0054
821.00,0.0054
820.00,0.0054
819.00,0.0055
818.00,0.0055
817.00,0.0056
816.00,0.0056
815.00,0.0057
814.00,0.0057
813.00,0.0057
812.00,0.0057
811.00,0.0057
810.00,0.0058
809.00,0.0059
808.00,0.0059
807.00,0.0060
806.00,0.0060
805.00,0.0060
804.00,0.0061
803.00,0.0062
802.00,0.0064
801.00,0.0065
800.00,0.0067
799.00,0.0070
798.00,0.0072
797.00,0.0075
796.00,0.0078
795.00,0.0082
794.00,0.0086
793.00,0.0091
792.00,0.0096
791.00,0.0102
790.00,0.0109
789.00,0.0115
788.00,0.0122
787.00,0.0130
786.00,0.0138
785.00,0.0147
784.00,0.0156
783.00,0.0166
782.00,0.0177
781.00,0.0190
780.00,0.0205
779.00,0.0222
778.00,0.0242
777.00,0.0264
776.00,0.0289
775.00,0.0316
774.00,0.0346
773.00,0.0377
772.00,0.0412
771.00,0.0448
770.00,0.0487
769.00,0.0527
768.00,0.0566
767.00,0.0605
766.00,0.0642
765.00,0.0678
764.00,0.0715
763.00,0.0753
762.00,0.0792
761.00,0.0832
760.00,0.0870
759.00,0.0906
758.00,0.0936
757.00,0.0959
756.00,0.0973
755.00,0.0978
754.00,0.0976
753.00,0.0972
752.00,0.0968
751.00,0.0965
750.00,0.0964
749.00,0.0961
748.00,0.0955
747.00,0.0939
746.00,0.0910
745.00,0.0866
744.00,0.0810
743.00,0.0745
742.00,0.0678
741.00,0.0613
740.00,0.0553
739.00,0.0498
738.00,0.0448
737.00,0.0401
736.00,0.0357
735.00,0.0314
734.00,0.0274
733.00,0.0238
732.00,0.0207
731.00,0.0182
730.00,0.0162
729.00,0.0148
728.00,0.0137
727.00,0.0129
726.00,0.0123
725.00,0.0119
724.00,0.0117
723.00,0.0115
722.00,0.0114
721.00,0.0115
720.00,0.0116
719.00,0.0118
718.00,0.0122
717.00,0.0128
716.00,0.0136
715.00,0.0148
714.00,0.0164
713.00,0.0187
712.00,0.0219
711.00,0.0263
710.00,0.0322
709.00,0.0399
708.00,0.0497
707.00,0.0618
706.00,0.0762
705.00,0.0930
704.00,0.1121
703.00,0.1333
702.00,0.1565
701.00,0.1813
700.00,0.2073
699.00,0.2339
698.00,0.2600
697.00,0.2834
696.00,0.3000
695.00,0.3051
694.00,0.2959
693.00,0.2730
692.00,0.2415
691.00,0.2077
690.00,0.1767
689.00,0.1505
688.00,0.1295
687.00,0.1129
686.00,0.0998
685.00,0.0895
684.00,0.0810
683.00,0.0740
682.00,0.0681
681.00,0.0631
680.00,0.0589
679.00,0.0554
678.00,0.0523
677.00,0.0497
676.00,0.0474
675.00,0.0454
674.00,0.0437
673.00,0.0421
672.00,0.0407
671.00,0.0394
670.00,0.0381
669.00,0.0368
668.00,0.0355
667.00,0.0343
666.00,0.0331
665.00,0.0320
664.00,0.0307
663.00,0.0294
662.00,0.0282
661.00,0.0271
660.00,0.0259
659.00,0.0249
658.00,0.0239
657.00,0.0230
656.00,0.0220
655.00,0.0211
654.00,0.0203
653.00,0.0196
652.00,0.0190
651.00,0.0186
650.00,0.0181
649.00,0.0177
648.00,0.0171
647.00,0.0167
646.00,0.0163
645.00,0.0160
644.00,0.0157
643.00,0.0156
642.00,0.0155
641.00,0.0155
640.00,0.0156
639.00,0.0158
638.00,0.0161
637.00,0.0163
636.00,0.0167
635.00,0.0171
634.00,0.0175
633.00,0.0179
632.00,0.0182
631.00,0.0186
630.00,0.0189
629.00,0.0193
628.00,0.0196
627.00,0.0198
626.00,0.0199
625.00,0.0201
624.00,0.0203
623.00,0.0207
622.00,0.0212
621.00,0.0214
620.00,0.0213
619.00,0.0208
618.00,0.0203
617.00,0.0197
616.00,0.0192
615.00,0.0187
614.00,0.0183
613.00,0.0179
612.00,0.0175
611.00,0.0172
610.00,0.0170
609.00,0.0169
608.00,0.0168
607.00,0.0167
606.00,0.0167
605.00,0.0167
604.00,0.0168
603.00,0.0170
602.00,0.0171
601.00,0.0173
600.00,0.0174
599.00,0.0176
598.00,0.0178
597.00,0.0181
596.00,0.0183
595.00,0.0185
594.00,0.0186
593.00,0.0188
592.00,0.0189
591.00,0.0190
590.00,0.0193
589.00,0.0196
588.00,0.0200
587.00,0.0204
586.00,0.0208
585.00,0.0213
584.00,0.0218
583.00,0.0223
582.00,0.0229
581.00,0.0236
580.00,0.0245
579.00,0.0255
578.00,0.0265
577.00,0.0276
576.00,0.0289
575.00,0.0302
574.00,0.0315
573.00,0.0329
572.00,0.0343
571.00,0.0357
570.00,0.0371
569.00,0.0385
568.00,0.0397
567.00,0.0409
566.00,0.0421
565.00,0.0433
564.00,0.0445
563.00,0.0457
562.00,0.0470
561.00,0.0483
560.00,0.0497
559.00,0.0511
558.00,0.0523
557.00,0.0536
556.00,0.0550
555.00,0.0565
554.00,0.0580
553.00,0.0595
552.00,0.0612
551.00,0.0630
550.00,0.0651
549.00,0.0675
548.00,0.0701
547.00,0.0729
546.00,0.0758
545.00,0.0789
544.00,0.0822
543.00,0.0854
542.00,0.0884
541.00,0.0912
540.00,0.0935
539.00,0.0948
538.00,0.0950
537.00,0.0942
536.00,0.0924
535.00,0.0895
534.00,0.0856
533.00,0.0810
532.00,0.0761
531.00,0.0713
530.00,0.0664
529.00,0.0619
528.00,0.0577
527.00,0.0537
526.00,0.0499
525.00,0.0465
524.00,0.0437
523.00,0.0414
522.00,0.0395
521.00,0.0377
520.00,0.0359
519.00,0.0343
518.00,0.0329
517.00,0.0319
516.00,0.0310
515.00,0.0300
514.00,0.0290
513.00,0.0280
512.00,0.0271
511.00,0.0262
510.00,0.0254
509.00,0.0246
508.00,0.0237
507.00,0.0229
506.00,0.0222
505.00,0.0218
504.00,0.0216
503.00,0.0213
502.00,0.0209
501.00,0.0203
500.00,0.0198
499.00,0.0193
498.00,0.0189
497.00,0.0185
496.00,0.0181
495.00,0.0176
494.00,0.0172
493.00,0.0169
492.00,0.0169
491.00,0.0170
490.00,0.0169
489.00,0.0166
488.00,0.0162
487.00,0.0158
486.00,0.0155
485.00,0.0153
484.00,0.0151
483.00,0.0150
482.00,0.0150
481.00,0.0150
480.00,0.0150
479.00,0.0149
478.00,0.0147
477.00,0.0144
476.00,0.0140
475.00,0.0139
474.00,0.0138
473.00,0.0140
472.00,0.0142
471.00,0.0142
470.00,0.0140
469.00,0.0137
468.00,0.0134
467.00,0.0133
466.00,0.0132
465.00,0.0132
464.00,0.0132
463.00,0.0130
462.00,0.0128
461.00,0.0126
460.00,0.0126
459.00,0.0127
458.00,0.0127
457.00,0.0125
456.00,0.0123
455.00,0.0122
454.00,0.0122
453.00,0.0124
452.00,0.0126
451.00,0.0130
450.00,0.0134
449.00,0.0136
448.00,0.0136
447.00,0.0132
446.00,0.0128
445.00,0.0125
444.00,0.0123
443.00,0.0121
442.00,0.0117
441.00,0.0115
440.00,0.0114
439.00,0.0116
438.00,0.0119
437.00,0.0121
436.00,0.0122
435.00,0.0123
434.00,0.0122
433.00,0.0120
432.00,0.0116
431.00,0.0113
430.00,0.0112
429.00,0.0110
428.00,0.0108
427.00,0.0105
426.00,0.0102
425.00,0.0101
424.00,0.0104
423.00,0.0108
422.00,0.0111
421.00,0.0112
420.00,0.0111
419.00,0.0108
418.00,0.0106
417.00,0.0103
416.00,0.0100
415.00,0.0098
414.00,0.0098
413.00,0.0100
412.00,0.0105
411.00,0.0111
410.00,0.0120
409.00,0.0130
408.00,0.0138
407.00,0.0139
406.00,0.0133
405.00,0.0128
404.00,0.0127
403.00,0.0131
402.00,0.0131
401.00,0.0119
400.00,0.0100
