Created as New Dataset,Sample 717 By YargerLab Date Tuesday, June 24 2025
cm-1,A
4000.00,0.0023
3999.00,0.0023
3998.00,0.0023
3997.00,0.0022
3996.00,0.0022
3995.00,0.0022
3994.00,0.0022
3993.00,0.0022
3992.00,0.0022
3991.00,0.0022
3990.00,0.0022
3989.00,0.0022
3988.00,0.0022
3987.00,0.0021
3986.00,0.0022
3985.00,0.0022
3984.00,0.0022
3983.00,0.0022
3982.00,0.0022
3981.00,0.0022
3980.00,0.0022
3979.00,0.0022
3978.00,0.0022
3977.00,0.0022
3976.00,0.0022
3975.00,0.0022
3974.00,0.0022
3973.00,0.0022
3972.00,0.0022
3971.00,0.0022
3970.00,0.0021
3969.00,0.0021
3968.00,0.0021
3967.00,0.0021
3966.00,0.0022
3965.00,0.0022
3964.00,0.0022
3963.00,0.0021
3962.00,0.0021
3961.00,0.0021
3960.00,0.0021
3959.00,0.0022
3958.00,0.0022
3957.00,0.0022
3956.00,0.0022
3955.00,0.0022
3954.00,0.0022
3953.00,0.0021
3952.00,0.0021
3951.00,0.0021
3950.00,0.0022
3949.00,0.0022
3948.00,0.0022
3947.00,0.0022
3946.00,0.0022
3945.00,0.0022
3944.00,0.0022
3943.00,0.0022
3942.00,0.0022
3941.00,0.0022
3940.00,0.0022
3939.00,0.0022
3938.00,0.0022
3937.00,0.0022
3936.00,0.0022
3935.00,0.0022
3934.00,0.0022
3933.00,0.0022
3932.00,0.0022
3931.00,0.0022
3930.00,0.0021
3929.00,0.0021
3928.00,0.0021
3927.00,0.0021
3926.00,0.0021
3925.00,0.0022
3924.00,0.0022
3923.00,0.0022
3922.00,0.0022
3921.00,0.0022
3920.00,0.0022
3919.00,0.0021
3918.00,0.0021
3917.00,0.0021
3916.00,0.0021
3915.00,0.0021
3914.00,0.0021
3913.00,0.0022
3912.00,0.0022
3911.00,0.0021
3910.00,0.0021
3909.00,0.0021
3908.00,0.0021
3907.00,0.0021
3906.00,0.0021
3905.00,0.0021
3904.00,0.0022
3903.00,0.0022
3902.00,0.0022
3901.00,0.0022
3900.00,0.0022
3899.00,0.0022
3898.00,0.0022
3897.00,0.0021
3896.00,0.0021
3895.00,0.0021
3894.00,0.0021
3893.00,0.0022
3892.00,0.0021
3891.00,0.0021
3890.00,0.0021
3889.00,0.0021
3888.00,0.0021
3887.00,0.0021
3886.00,0.0021
3885.00,0.0021
3884.00,0.0021
3883.00,0.0021
3882.00,0.0021
3881.00,0.0021
3880.00,0.0021
3879.00,0.0021
3878.00,0.0022
3877.00,0.0022
3876.00,0.0021
3875.00,0.0021
3874.00,0.0021
3873.00,0.0021
3872.00,0.0022
3871.00,0.0022
3870.00,0.0021
3869.00,0.0021
3868.00,0.0021
3867.00,0.0021
3866.00,0.0021
3865.00,0.0021
3864.00,0.0021
3863.00,0.0021
3862.00,0.0021
3861.00,0.0022
3860.00,0.0022
3859.00,0.0022
3858.00,0.0022
3857.00,0.0022
3856.00,0.0022
3855.00,0.0023
3854.00,0.0022
3853.00,0.0022
3852.00,0.0023
3851.00,0.0022
3850.00,0.0022
3849.00,0.0022
3848.00,0.0021
3847.00,0.0021
3846.00,0.0021
3845.00,0.0021
3844.00,0.0021
3843.00,0.0021
3842.00,0.0021
3841.00,0.0022
3840.00,0.0022
3839.00,0.0022
3838.00,0.0022
3837.00,0.0022
3836.00,0.0022
3835.00,0.0022
3834.00,0.0022
3833.00,0.0022
3832.00,0.0022
3831.00,0.0022
3830.00,0.0022
3829.00,0.0022
3828.00,0.0022
3827.00,0.0022
3826.00,0.0021
3825.00,0.0022
3824.00,0.0022
3823.00,0.0022
3822.00,0.0022
3821.00,0.0022
3820.00,0.0022
3819.00,0.0022
3818.00,0.0022
3817.00,0.0022
3816.00,0.0022
3815.00,0.0022
3814.00,0.0022
3813.00,0.0022
3812.00,0.0022
3811.00,0.0022
3810.00,0.0022
3809.00,0.0022
3808.00,0.0022
3807.00,0.0022
3806.00,0.0022
3805.00,0.0022
3804.00,0.0022
3803.00,0.0023
3802.00,0.0023
3801.00,0.0023
3800.00,0.0023
3799.00,0.0023
3798.00,0.0022
3797.00,0.0022
3796.00,0.0022
3795.00,0.0021
3794.00,0.0021
3793.00,0.0022
3792.00,0.0022
3791.00,0.0022
3790.00,0.0021
3789.00,0.0021
3788.00,0.0021
3787.00,0.0021
3786.00,0.0021
3785.00,0.0021
3784.00,0.0022
3783.00,0.0022
3782.00,0.0022
3781.00,0.0022
3780.00,0.0021
3779.00,0.0021
3778.00,0.0021
3777.00,0.0021
3776.00,0.0021
3775.00,0.0022
3774.00,0.0022
3773.00,0.0022
3772.00,0.0022
3771.00,0.0022
3770.00,0.0022
3769.00,0.0022
3768.00,0.0022
3767.00,0.0022
3766.00,0.0022
3765.00,0.0022
3764.00,0.0022
3763.00,0.0022
3762.00,0.0022
3761.00,0.0022
3760.00,0.0022
3759.00,0.0022
3758.00,0.0022
3757.00,0.0022
3756.00,0.0022
3755.00,0.0023
3754.00,0.0023
3753.00,0.0023
3752.00,0.0024
3751.00,0.0024
3750.00,0.0024
3749.00,0.0024
3748.00,0.0024
3747.00,0.0024
3746.00,0.0024
3745.00,0.0024
3744.00,0.0024
3743.00,0.0023
3742.00,0.0023
3741.00,0.0023
3740.00,0.0023
3739.00,0.0022
3738.00,0.0022
3737.00,0.0022
3736.00,0.0022
3735.00,0.0022
3734.00,0.0022
3733.00,0.0022
3732.00,0.0022
3731.00,0.0022
3730.00,0.0022
3729.00,0.0022
3728.00,0.0021
3727.00,0.0021
3726.00,0.0021
3725.00,0.0022
3724.00,0.0022
3723.00,0.0022
3722.00,0.0022
3721.00,0.0022
3720.00,0.0022
3719.00,0.0021
3718.00,0.0021
3717.00,0.0021
3716.00,0.0020
3715.00,0.0021
3714.00,0.0021
3713.00,0.0021
3712.00,0.0022
3711.00,0.0021
3710.00,0.0021
3709.00,0.0021
3708.00,0.0021
3707.00,0.0021
3706.00,0.0021
3705.00,0.0021
3704.00,0.0021
3703.00,0.0021
3702.00,0.0021
3701.00,0.0021
3700.00,0.0021
3699.00,0.0021
3698.00,0.0021
3697.00,0.0021
3696.00,0.0020
3695.00,0.0020
3694.00,0.0020
3693.00,0.0020
3692.00,0.0020
3691.00,0.0020
3690.00,0.0020
3689.00,0.0019
3688.00,0.0019
3687.00,0.0019
3686.00,0.0018
3685.00,0.0018
3684.00,0.0018
3683.00,0.0017
3682.00,0.0017
3681.00,0.0016
3680.00,0.0016
3679.00,0.0016
3678.00,0.0015
3677.00,0.0015
3676.00,0.0014
3675.00,0.0014
3674.00,0.0014
3673.00,0.0014
3672.00,0.0014
3671.00,0.0013
3670.00,0.0013
3669.00,0.0013
3668.00,0.0012
3667.00,0.0012
3666.00,0.0012
3665.00,0.0012
3664.00,0.0011
3663.00,0.0011
3662.00,0.0011
3661.00,0.0011
3660.00,0.0011
3659.00,0.0011
3658.00,0.0011
3657.00,0.0011
3656.00,0.0011
3655.00,0.0012
3654.00,0.0012
3653.00,0.0012
3652.00,0.0013
3651.00,0.0013
3650.00,0.0013
3649.00,0.0013
3648.00,0.0014
3647.00,0.0014
3646.00,0.0013
3645.00,0.0013
3644.00,0.0014
3643.00,0.0014
3642.00,0.0014
3641.00,0.0014
3640.00,0.0014
3639.00,0.0013
3638.00,0.0013
3637.00,0.0013
3636.00,0.0014
3635.00,0.0015
3634.00,0.0016
3633.00,0.0017
3632.00,0.0017
3631.00,0.0018
3630.00,0.0018
3629.00,0.0018
3628.00,0.0018
3627.00,0.0019
3626.00,0.0019
3625.00,0.0019
3624.00,0.0019
3623.00,0.0019
3622.00,0.0019
3621.00,0.0019
3620.00,0.0019
3619.00,0.0019
3618.00,0.0019
3617.00,0.0019
3616.00,0.0019
3615.00,0.0019
3614.00,0.0019
3613.00,0.0019
3612.00,0.0019
3611.00,0.0020
3610.00,0.0020
3609.00,0.0020
3608.00,0.0020
3607.00,0.0020
3606.00,0.0020
3605.00,0.0020
3604.00,0.0020
3603.00,0.0019
3602.00,0.0019
3601.00,0.0019
3600.00,0.0018
3599.00,0.0018
3598.00,0.0018
3597.00,0.0018
3596.00,0.0018
3595.00,0.0018
3594.00,0.0018
3593.00,0.0018
3592.00,0.0019
3591.00,0.0019
3590.00,0.0019
3589.00,0.0019
3588.00,0.0019
3587.00,0.0019
3586.00,0.0019
3585.00,0.0019
3584.00,0.0019
3583.00,0.0019
3582.00,0.0019
3581.00,0.0019
3580.00,0.0019
3579.00,0.0019
3578.00,0.0019
3577.00,0.0019
3576.00,0.0019
3575.00,0.0019
3574.00,0.0019
3573.00,0.0019
3572.00,0.0019
3571.00,0.0019
3570.00,0.0019
3569.00,0.0019
3568.00,0.0019
3567.00,0.0018
3566.00,0.0018
3565.00,0.0018
3564.00,0.0019
3563.00,0.0019
3562.00,0.0019
3561.00,0.0019
3560.00,0.0019
3559.00,0.0019
3558.00,0.0019
3557.00,0.0019
3556.00,0.0019
3555.00,0.0019
3554.00,0.0019
3553.00,0.0019
3552.00,0.0019
3551.00,0.0020
3550.00,0.0020
3549.00,0.0020
3548.00,0.0020
3547.00,0.0020
3546.00,0.0020
3545.00,0.0020
3544.00,0.0020
3543.00,0.0020
3542.00,0.0020
3541.00,0.0020
3540.00,0.0020
3539.00,0.0019
3538.00,0.0019
3537.00,0.0020
3536.00,0.0020
3535.00,0.0020
3534.00,0.0020
3533.00,0.0020
3532.00,0.0021
3531.00,0.0020
3530.00,0.0020
3529.00,0.0020
3528.00,0.0020
3527.00,0.0020
3526.00,0.0020
3525.00,0.0020
3524.00,0.0021
3523.00,0.0021
3522.00,0.0020
3521.00,0.0020
3520.00,0.0020
3519.00,0.0020
3518.00,0.0020
3517.00,0.0020
3516.00,0.0020
3515.00,0.0020
3514.00,0.0020
3513.00,0.0020
3512.00,0.0020
3511.00,0.0020
3510.00,0.0020
3509.00,0.0020
3508.00,0.0020
3507.00,0.0020
3506.00,0.0020
3505.00,0.0020
3504.00,0.0020
3503.00,0.0020
3502.00,0.0020
3501.00,0.0020
3500.00,0.0020
3499.00,0.0020
3498.00,0.0020
3497.00,0.0021
3496.00,0.0021
3495.00,0.0021
3494.00,0.0021
3493.00,0.0021
3492.00,0.0021
3491.00,0.0021
3490.00,0.0021
3489.00,0.0021
3488.00,0.0021
3487.00,0.0021
3486.00,0.0021
3485.00,0.0021
3484.00,0.0021
3483.00,0.0021
3482.00,0.0020
3481.00,0.0021
3480.00,0.0021
3479.00,0.0021
3478.00,0.0021
3477.00,0.0021
3476.00,0.0021
3475.00,0.0021
3474.00,0.0021
3473.00,0.0021
3472.00,0.0021
3471.00,0.0021
3470.00,0.0021
3469.00,0.0021
3468.00,0.0021
3467.00,0.0021
3466.00,0.0021
3465.00,0.0021
3464.00,0.0021
3463.00,0.0021
3462.00,0.0021
3461.00,0.0021
3460.00,0.0020
3459.00,0.0020
3458.00,0.0020
3457.00,0.0020
3456.00,0.0020
3455.00,0.0020
3454.00,0.0020
3453.00,0.0020
3452.00,0.0020
3451.00,0.0020
3450.00,0.0020
3449.00,0.0020
3448.00,0.0020
3447.00,0.0020
3446.00,0.0021
3445.00,0.0021
3444.00,0.0021
3443.00,0.0021
3442.00,0.0020
3441.00,0.0020
3440.00,0.0020
3439.00,0.0021
3438.00,0.0021
3437.00,0.0021
3436.00,0.0021
3435.00,0.0021
3434.00,0.0021
3433.00,0.0021
3432.00,0.0021
3431.00,0.0021
3430.00,0.0021
3429.00,0.0020
3428.00,0.0020
3427.00,0.0020
3426.00,0.0020
3425.00,0.0020
3424.00,0.0020
3423.00,0.0020
3422.00,0.0020
3421.00,0.0020
3420.00,0.0020
3419.00,0.0020
3418.00,0.0020
3417.00,0.0020
3416.00,0.0020
3415.00,0.0020
3414.00,0.0021
3413.00,0.0020
3412.00,0.0020
3411.00,0.0020
3410.00,0.0020
3409.00,0.0020
3408.00,0.0020
3407.00,0.0020
3406.00,0.0020
3405.00,0.0020
3404.00,0.0020
3403.00,0.0020
3402.00,0.0020
3401.00,0.0020
3400.00,0.0020
3399.00,0.0020
3398.00,0.0020
3397.00,0.0020
3396.00,0.0020
3395.00,0.0020
3394.00,0.0020
3393.00,0.0020
3392.00,0.0020
3391.00,0.0021
3390.00,0.0021
3389.00,0.0021
3388.00,0.0021
3387.00,0.0020
3386.00,0.0020
3385.00,0.0020
3384.00,0.0020
3383.00,0.0020
3382.00,0.0020
3381.00,0.0020
3380.00,0.0020
3379.00,0.0020
3378.00,0.0020
3377.00,0.0020
3376.00,0.0020
3375.00,0.0020
3374.00,0.0020
3373.00,0.0020
3372.00,0.0020
3371.00,0.0020
3370.00,0.0020
3369.00,0.0020
3368.00,0.0020
3367.00,0.0020
3366.00,0.0020
3365.00,0.0020
3364.00,0.0020
3363.00,0.0020
3362.00,0.0020
3361.00,0.0020
3360.00,0.0019
3359.00,0.0019
3358.00,0.0019
3357.00,0.0019
3356.00,0.0019
3355.00,0.0019
3354.00,0.0020
3353.00,0.0020
3352.00,0.0020
3351.00,0.0020
3350.00,0.0020
3349.00,0.0020
3348.00,0.0020
3347.00,0.0020
3346.00,0.0019
3345.00,0.0019
3344.00,0.0019
3343.00,0.0019
3342.00,0.0019
3341.00,0.0020
3340.00,0.0020
3339.00,0.0020
3338.00,0.0020
3337.00,0.0019
3336.00,0.0019
3335.00,0.0019
3334.00,0.0020
3333.00,0.0020
3332.00,0.0020
3331.00,0.0020
3330.00,0.0020
3329.00,0.0020
3328.00,0.0020
3327.00,0.0020
3326.00,0.0020
3325.00,0.0019
3324.00,0.0019
3323.00,0.0019
3322.00,0.0020
3321.00,0.0020
3320.00,0.0020
3319.00,0.0020
3318.00,0.0020
3317.00,0.0020
3316.00,0.0020
3315.00,0.0020
3314.00,0.0020
3313.00,0.0020
3312.00,0.0020
3311.00,0.0020
3310.00,0.0020
3309.00,0.0020
3308.00,0.0020
3307.00,0.0020
3306.00,0.0020
3305.00,0.0020
3304.00,0.0020
3303.00,0.0020
3302.00,0.0020
3301.00,0.0020
3300.00,0.0020
3299.00,0.0020
3298.00,0.0020
3297.00,0.0020
3296.00,0.0020
3295.00,0.0020
3294.00,0.0020
3293.00,0.0020
3292.00,0.0020
3291.00,0.0019
3290.00,0.0019
3289.00,0.0019
3288.00,0.0019
3287.00,0.0019
3286.00,0.0019
3285.00,0.0019
3284.00,0.0020
3283.00,0.0020
3282.00,0.0020
3281.00,0.0019
3280.00,0.0019
3279.00,0.0019
3278.00,0.0019
3277.00,0.0020
3276.00,0.0020
3275.00,0.0020
3274.00,0.0020
3273.00,0.0020
3272.00,0.0020
3271.00,0.0020
3270.00,0.0020
3269.00,0.0020
3268.00,0.0020
3267.00,0.0020
3266.00,0.0019
3265.00,0.0019
3264.00,0.0019
3263.00,0.0019
3262.00,0.0019
3261.00,0.0019
3260.00,0.0019
3259.00,0.0019
3258.00,0.0019
3257.00,0.0019
3256.00,0.0019
3255.00,0.0019
3254.00,0.0019
3253.00,0.0019
3252.00,0.0019
3251.00,0.0019
3250.00,0.0019
3249.00,0.0019
3248.00,0.0019
3247.00,0.0019
3246.00,0.0019
3245.00,0.0018
3244.00,0.0018
3243.00,0.0018
3242.00,0.0018
3241.00,0.0018
3240.00,0.0018
3239.00,0.0018
3238.00,0.0018
3237.00,0.0018
3236.00,0.0018
3235.00,0.0018
3234.00,0.0018
3233.00,0.0018
3232.00,0.0018
3231.00,0.0018
3230.00,0.0018
3229.00,0.0018
3228.00,0.0018
3227.00,0.0018
3226.00,0.0018
3225.00,0.0018
3224.00,0.0018
3223.00,0.0018
3222.00,0.0018
3221.00,0.0018
3220.00,0.0018
3219.00,0.0018
3218.00,0.0018
3217.00,0.0018
3216.00,0.0018
3215.00,0.0018
3214.00,0.0018
3213.00,0.0018
3212.00,0.0018
3211.00,0.0019
3210.00,0.0019
3209.00,0.0019
3208.00,0.0019
3207.00,0.0019
3206.00,0.0019
3205.00,0.0019
3204.00,0.0020
3203.00,0.0020
3202.00,0.0020
3201.00,0.0019
3200.00,0.0019
3199.00,0.0019
3198.00,0.0019
3197.00,0.0019
3196.00,0.0018
3195.00,0.0018
3194.00,0.0018
3193.00,0.0018
3192.00,0.0018
3191.00,0.0018
3190.00,0.0018
3189.00,0.0018
3188.00,0.0018
3187.00,0.0018
3186.00,0.0018
3185.00,0.0018
3184.00,0.0018
3183.00,0.0018
3182.00,0.0018
3181.00,0.0018
3180.00,0.0018
3179.00,0.0018
3178.00,0.0018
3177.00,0.0018
3176.00,0.0018
3175.00,0.0018
3174.00,0.0018
3173.00,0.0019
3172.00,0.0019
3171.00,0.0019
3170.00,0.0019
3169.00,0.0019
3168.00,0.0020
3167.00,0.0020
3166.00,0.0020
3165.00,0.0020
3164.00,0.0020
3163.00,0.0020
3162.00,0.0020
3161.00,0.0020
3160.00,0.0020
3159.00,0.0020
3158.00,0.0020
3157.00,0.0019
3156.00,0.0019
3155.00,0.0019
3154.00,0.0019
3153.00,0.0019
3152.00,0.0019
3151.00,0.0019
3150.00,0.0019
3149.00,0.0019
3148.00,0.0019
3147.00,0.0019
3146.00,0.0019
3145.00,0.0019
3144.00,0.0019
3143.00,0.0019
3142.00,0.0019
3141.00,0.0019
3140.00,0.0019
3139.00,0.0019
3138.00,0.0019
3137.00,0.0019
3136.00,0.0019
3135.00,0.0019
3134.00,0.0018
3133.00,0.0018
3132.00,0.0018
3131.00,0.0019
3130.00,0.0019
3129.00,0.0019
3128.00,0.0019
3127.00,0.0020
3126.00,0.0020
3125.00,0.0020
3124.00,0.0020
3123.00,0.0020
3122.00,0.0021
3121.00,0.0021
3120.00,0.0022
3119.00,0.0023
3118.00,0.0023
3117.00,0.0024
3116.00,0.0024
3115.00,0.0025
3114.00,0.0026
3113.00,0.0027
3112.00,0.0029
3111.00,0.0031
3110.00,0.0033
3109.00,0.0035
3108.00,0.0037
3107.00,0.0040
3106.00,0.0042
3105.00,0.0043
3104.00,0.0044
3103.00,0.0045
3102.00,0.0045
3101.00,0.0044
3100.00,0.0044
3099.00,0.0043
3098.00,0.0042
3097.00,0.0042
3096.00,0.0042
3095.00,0.0043
3094.00,0.0045
3093.00,0.0047
3092.00,0.0050
3091.00,0.0054
3090.00,0.0060
3089.00,0.0066
3088.00,0.0073
3087.00,0.0080
3086.00,0.0088
3085.00,0.0094
3084.00,0.0099
3083.00,0.0102
3082.00,0.0103
3081.00,0.0102
3080.00,0.0099
3079.00,0.0094
3078.00,0.0089
3077.00,0.0084
3076.00,0.0081
3075.00,0.0078
3074.00,0.0077
3073.00,0.0077
3072.00,0.0078
3071.00,0.0080
3070.00,0.0083
3069.00,0.0087
3068.00,0.0092
3067.00,0.0099
3066.00,0.0106
3065.00,0.0113
3064.00,0.0121
3063.00,0.0129
3062.00,0.0135
3061.00,0.0140
3060.00,0.0142
3059.00,0.0141
3058.00,0.0138
3057.00,0.0132
3056.00,0.0126
3055.00,0.0118
3054.00,0.0110
3053.00,0.0102
3052.00,0.0096
3051.00,0.0090
3050.00,0.0085
3049.00,0.0081
3048.00,0.0078
3047.00,0.0076
3046.00,0.0074
3045.00,0.0074
3044.00,0.0075
3043.00,0.0076
3042.00,0.0079
3041.00,0.0082
3040.00,0.0087
3039.00,0.0092
3038.00,0.0099
3037.00,0.0106
3036.00,0.0116
3035.00,0.0127
3034.00,0.0140
3033.00,0.0155
3032.00,0.0173
3031.00,0.0192
3030.00,0.0211
3029.00,0.0230
3028.00,0.0247
3027.00,0.0261
3026.00,0.0268
3025.00,0.0270
3024.00,0.0264
3023.00,0.0251
3022.00,0.0233
3021.00,0.0211
3020.00,0.0188
3019.00,0.0165
3018.00,0.0144
3017.00,0.0125
3016.00,0.0109
3015.00,0.0096
3014.00,0.0085
3013.00,0.0075
3012.00,0.0068
3011.00,0.0062
3010.00,0.0058
3009.00,0.0054
3008.00,0.0052
3007.00,0.0050
3006.00,0.0049
3005.00,0.0048
3004.00,0.0048
3003.00,0.0047
3002.00,0.0045
3001.00,0.0042
3000.00,0.0037
2999.00,0.0031
2998.00,0.0025
2997.00,0.0018
2996.00,0.0012
2995.00,0.0006
2994.00,0.0000
2993.00,-0.0004
2992.00,-0.0008
2991.00,-0.0011
2990.00,-0.0014
2989.00,-0.0016
2988.00,-0.0018
2987.00,-0.0021
2986.00,-0.0026
2985.00,-0.0032
2984.00,-0.0041
2983.00,-0.0050
2982.00,-0.0056
2981.00,-0.0058
2980.00,-0.0056
2979.00,-0.0052
2978.00,-0.0046
2977.00,-0.0041
2976.00,-0.0038
2975.00,-0.0036
2974.00,-0.0035
2973.00,-0.0036
2972.00,-0.0036
2971.00,-0.0035
2970.00,-0.0032
2969.00,-0.0027
2968.00,-0.0022
2967.00,-0.0018
2966.00,-0.0014
2965.00,-0.0010
2964.00,-0.0006
2963.00,-0.0002
2962.00,0.0002
2961.00,0.0006
2960.00,0.0009
2959.00,0.0013
2958.00,0.0017
2957.00,0.0021
2956.00,0.0026
2955.00,0.0030
2954.00,0.0035
2953.00,0.0040
2952.00,0.0046
2951.00,0.0051
2950.00,0.0057
2949.00,0.0063
2948.00,0.0070
2947.00,0.0078
2946.00,0.0085
2945.00,0.0093
2944.00,0.0102
2943.00,0.0110
2942.00,0.0118
2941.00,0.0127
2940.00,0.0137
2939.00,0.0147
2938.00,0.0157
2937.00,0.0168
2936.00,0.0179
2935.00,0.0190
2934.00,0.0201
2933.00,0.0213
2932.00,0.0224
2931.00,0.0236
2930.00,0.0247
2929.00,0.0257
2928.00,0.0267
2927.00,0.0275
2926.00,0.0283
2925.00,0.0289
2924.00,0.0293
2923.00,0.0297
2922.00,0.0298
2921.00,0.0299
2920.00,0.0298
2919.00,0.0296
2918.00,0.0292
2917.00,0.0288
2916.00,0.0283
2915.00,0.0277
2914.00,0.0270
2913.00,0.0263
2912.00,0.0255
2911.00,0.0246
2910.00,0.0238
2909.00,0.0229
2908.00,0.0221
2907.00,0.0212
2906.00,0.0204
2905.00,0.0196
2904.00,0.0187
2903.00,0.0179
2902.00,0.0170
2901.00,0.0162
2900.00,0.0154
2899.00,0.0145
2898.00,0.0138
2897.00,0.0131
2896.00,0.0124
2895.00,0.0118
2894.00,0.0112
2893.00,0.0107
2892.00,0.0102
2891.00,0.0097
2890.00,0.0093
2889.00,0.0090
2888.00,0.0087
2887.00,0.0084
2886.00,0.0081
2885.00,0.0078
2884.00,0.0076
2883.00,0.0075
2882.00,0.0074
2881.00,0.0073
2880.00,0.0072
2879.00,0.0071
2878.00,0.0070
2877.00,0.0069
2876.00,0.0067
2875.00,0.0066
2874.00,0.0065
2873.00,0.0065
2872.00,0.0064
2871.00,0.0064
2870.00,0.0064
2869.00,0.0064
2868.00,0.0065
2867.00,0.0066
2866.00,0.0068
2865.00,0.0071
2864.00,0.0073
2863.00,0.0077
2862.00,0.0081
2861.00,0.0085
2860.00,0.0090
2859.00,0.0096
2858.00,0.0101
2857.00,0.0107
2856.00,0.0112
2855.00,0.0118
2854.00,0.0123
2853.00,0.0127
2852.00,0.0131
2851.00,0.0135
2850.00,0.0137
2849.00,0.0137
2848.00,0.0137
2847.00,0.0135
2846.00,0.0131
2845.00,0.0127
2844.00,0.0121
2843.00,0.0115
2842.00,0.0107
2841.00,0.0099
2840.00,0.0091
2839.00,0.0083
2838.00,0.0075
2837.00,0.0068
2836.00,0.0062
2835.00,0.0057
2834.00,0.0053
2833.00,0.0049
2832.00,0.0046
2831.00,0.0044
2830.00,0.0042
2829.00,0.0040
2828.00,0.0039
2827.00,0.0038
2826.00,0.0037
2825.00,0.0036
2824.00,0.0035
2823.00,0.0035
2822.00,0.0034
2821.00,0.0034
2820.00,0.0033
2819.00,0.0033
2818.00,0.0033
2817.00,0.0033
2816.00,0.0033
2815.00,0.0032
2814.00,0.0032
2813.00,0.0032
2812.00,0.0032
2811.00,0.0032
2810.00,0.0032
2809.00,0.0032
2808.00,0.0032
2807.00,0.0032
2806.00,0.0031
2805.00,0.0031
2804.00,0.0031
2803.00,0.0031
2802.00,0.0031
2801.00,0.0031
2800.00,0.0030
2799.00,0.0030
2798.00,0.0030
2797.00,0.0029
2796.00,0.0029
2795.00,0.0029
2794.00,0.0028
2793.00,0.0028
2792.00,0.0028
2791.00,0.0028
2790.00,0.0028
2789.00,0.0028
2788.00,0.0028
2787.00,0.0028
2786.00,0.0028
2785.00,0.0028
2784.00,0.0028
2783.00,0.0028
2782.00,0.0028
2781.00,0.0028
2780.00,0.0027
2779.00,0.0027
2778.00,0.0027
2777.00,0.0027
2776.00,0.0027
2775.00,0.0027
2774.00,0.0027
2773.00,0.0027
2772.00,0.0026
2771.00,0.0026
2770.00,0.0026
2769.00,0.0026
2768.00,0.0026
2767.00,0.0026
2766.00,0.0026
2765.00,0.0026
2764.00,0.0026
2763.00,0.0026
2762.00,0.0025
2761.00,0.0025
2760.00,0.0025
2759.00,0.0025
2758.00,0.0025
2757.00,0.0025
2756.00,0.0025
2755.00,0.0025
2754.00,0.0025
2753.00,0.0025
2752.00,0.0025
2751.00,0.0025
2750.00,0.0025
2749.00,0.0025
2748.00,0.0024
2747.00,0.0024
2746.00,0.0024
2745.00,0.0024
2744.00,0.0024
2743.00,0.0025
2742.00,0.0025
2741.00,0.0025
2740.00,0.0025
2739.00,0.0025
2738.00,0.0025
2737.00,0.0025
2736.00,0.0025
2735.00,0.0025
2734.00,0.0025
2733.00,0.0025
2732.00,0.0025
2731.00,0.0025
2730.00,0.0025
2729.00,0.0025
2728.00,0.0026
2727.00,0.0026
2726.00,0.0026
2725.00,0.0026
2724.00,0.0026
2723.00,0.0026
2722.00,0.0026
2721.00,0.0025
2720.00,0.0025
2719.00,0.0025
2718.00,0.0025
2717.00,0.0025
2716.00,0.0026
2715.00,0.0026
2714.00,0.0026
2713.00,0.0026
2712.00,0.0026
2711.00,0.0025
2710.00,0.0025
2709.00,0.0025
2708.00,0.0026
2707.00,0.0026
2706.00,0.0026
2705.00,0.0025
2704.00,0.0025
2703.00,0.0025
2702.00,0.0025
2701.00,0.0025
2700.00,0.0025
2699.00,0.0025
2698.00,0.0026
2697.00,0.0025
2696.00,0.0025
2695.00,0.0025
2694.00,0.0025
2693.00,0.0025
2692.00,0.0025
2691.00,0.0025
2690.00,0.0025
2689.00,0.0025
2688.00,0.0025
2687.00,0.0025
2686.00,0.0025
2685.00,0.0025
2684.00,0.0025
2683.00,0.0025
2682.00,0.0025
2681.00,0.0025
2680.00,0.0025
2679.00,0.0025
2678.00,0.0025
2677.00,0.0025
2676.00,0.0025
2675.00,0.0025
2674.00,0.0025
2673.00,0.0025
2672.00,0.0025
2671.00,0.0025
2670.00,0.0025
2669.00,0.0025
2668.00,0.0025
2667.00,0.0025
2666.00,0.0026
2665.00,0.0026
2664.00,0.0027
2663.00,0.0027
2662.00,0.0027
2661.00,0.0028
2660.00,0.0028
2659.00,0.0028
2658.00,0.0028
2657.00,0.0029
2656.00,0.0029
2655.00,0.0029
2654.00,0.0029
2653.00,0.0029
2652.00,0.0029
2651.00,0.0029
2650.00,0.0029
2649.00,0.0029
2648.00,0.0029
2647.00,0.0030
2646.00,0.0030
2645.00,0.0029
2644.00,0.0029
2643.00,0.0030
2642.00,0.0030
2641.00,0.0030
2640.00,0.0030
2639.00,0.0030
2638.00,0.0030
2637.00,0.0030
2636.00,0.0030
2635.00,0.0030
2634.00,0.0031
2633.00,0.0031
2632.00,0.0031
2631.00,0.0031
2630.00,0.0030
2629.00,0.0030
2628.00,0.0030
2627.00,0.0030
2626.00,0.0029
2625.00,0.0029
2624.00,0.0029
2623.00,0.0029
2622.00,0.0029
2621.00,0.0028
2620.00,0.0028
2619.00,0.0028
2618.00,0.0027
2617.00,0.0027
2616.00,0.0027
2615.00,0.0027
2614.00,0.0027
2613.00,0.0027
2612.00,0.0027
2611.00,0.0027
2610.00,0.0028
2609.00,0.0028
2608.00,0.0028
2607.00,0.0028
2606.00,0.0028
2605.00,0.0028
2604.00,0.0028
2603.00,0.0028
2602.00,0.0028
2601.00,0.0028
2600.00,0.0027
2599.00,0.0027
2598.00,0.0027
2597.00,0.0027
2596.00,0.0027
2595.00,0.0027
2594.00,0.0027
2593.00,0.0027
2592.00,0.0027
2591.00,0.0027
2590.00,0.0026
2589.00,0.0026
2588.00,0.0026
2587.00,0.0026
2586.00,0.0026
2585.00,0.0026
2584.00,0.0026
2583.00,0.0026
2582.00,0.0026
2581.00,0.0026
2580.00,0.0026
2579.00,0.0025
2578.00,0.0025
2577.00,0.0025
2576.00,0.0025
2575.00,0.0025
2574.00,0.0025
2573.00,0.0025
2572.00,0.0024
2571.00,0.0024
2570.00,0.0024
2569.00,0.0024
2568.00,0.0024
2567.00,0.0024
2566.00,0.0024
2565.00,0.0024
2564.00,0.0023
2563.00,0.0023
2562.00,0.0023
2561.00,0.0023
2560.00,0.0023
2559.00,0.0023
2558.00,0.0023
2557.00,0.0023
2556.00,0.0022
2555.00,0.0022
2554.00,0.0022
2553.00,0.0022
2552.00,0.0022
2551.00,0.0023
2550.00,0.0023
2549.00,0.0023
2548.00,0.0023
2547.00,0.0023
2546.00,0.0023
2545.00,0.0023
2544.00,0.0023
2543.00,0.0023
2542.00,0.0022
2541.00,0.0022
2540.00,0.0022
2539.00,0.0022
2538.00,0.0022
2537.00,0.0022
2536.00,0.0022
2535.00,0.0022
2534.00,0.0022
2533.00,0.0022
2532.00,0.0022
2531.00,0.0022
2530.00,0.0022
2529.00,0.0022
2528.00,0.0021
2527.00,0.0021
2526.00,0.0021
2525.00,0.0021
2524.00,0.0021
2523.00,0.0022
2522.00,0.0022
2521.00,0.0022
2520.00,0.0022
2519.00,0.0022
2518.00,0.0022
2517.00,0.0022
2516.00,0.0022
2515.00,0.0022
2514.00,0.0022
2513.00,0.0022
2512.00,0.0022
2511.00,0.0022
2510.00,0.0022
2509.00,0.0022
2508.00,0.0022
2507.00,0.0022
2506.00,0.0022
2505.00,0.0022
2504.00,0.0022
2503.00,0.0022
2502.00,0.0022
2501.00,0.0022
2500.00,0.0022
2499.00,0.0022
2498.00,0.0022
2497.00,0.0021
2496.00,0.0021
2495.00,0.0021
2494.00,0.0021
2493.00,0.0021
2492.00,0.0022
2491.00,0.0022
2490.00,0.0022
2489.00,0.0021
2488.00,0.0021
2487.00,0.0021
2486.00,0.0021
2485.00,0.0021
2484.00,0.0020
2483.00,0.0020
2482.00,0.0020
2481.00,0.0020
2480.00,0.0020
2479.00,0.0020
2478.00,0.0020
2477.00,0.0020
2476.00,0.0020
2475.00,0.0020
2474.00,0.0020
2473.00,0.0020
2472.00,0.0020
2471.00,0.0020
2470.00,0.0020
2469.00,0.0020
2468.00,0.0021
2467.00,0.0021
2466.00,0.0021
2465.00,0.0021
2464.00,0.0021
2463.00,0.0021
2462.00,0.0021
2461.00,0.0020
2460.00,0.0021
2459.00,0.0021
2458.00,0.0021
2457.00,0.0021
2456.00,0.0021
2455.00,0.0021
2454.00,0.0020
2453.00,0.0020
2452.00,0.0020
2451.00,0.0020
2450.00,0.0020
2449.00,0.0020
2448.00,0.0020
2447.00,0.0020
2446.00,0.0020
2445.00,0.0020
2444.00,0.0020
2443.00,0.0020
2442.00,0.0020
2441.00,0.0020
2440.00,0.0020
2439.00,0.0020
2438.00,0.0020
2437.00,0.0020
2436.00,0.0020
2435.00,0.0020
2434.00,0.0019
2433.00,0.0019
2432.00,0.0019
2431.00,0.0018
2430.00,0.0018
2429.00,0.0018
2428.00,0.0018
2427.00,0.0018
2426.00,0.0017
2425.00,0.0017
2424.00,0.0017
2423.00,0.0017
2422.00,0.0017
2421.00,0.0017
2420.00,0.0017
2419.00,0.0017
2418.00,0.0018
2417.00,0.0018
2416.00,0.0018
2415.00,0.0018
2414.00,0.0018
2413.00,0.0018
2412.00,0.0018
2411.00,0.0018
2410.00,0.0017
2409.00,0.0016
2408.00,0.0016
2407.00,0.0016
2406.00,0.0016
2405.00,0.0016
2404.00,0.0016
2403.00,0.0016
2402.00,0.0016
2401.00,0.0016
2400.00,0.0016
2399.00,0.0016
2398.00,0.0016
2397.00,0.0016
2396.00,0.0016
2395.00,0.0016
2394.00,0.0016
2393.00,0.0016
2392.00,0.0016
2391.00,0.0016
2390.00,0.0016
2389.00,0.0016
2388.00,0.0016
2387.00,0.0016
2386.00,0.0016
2385.00,0.0016
2384.00,0.0016
2383.00,0.0016
2382.00,0.0017
2381.00,0.0017
2380.00,0.0017
2379.00,0.0016
2378.00,0.0016
2377.00,0.0016
2376.00,0.0017
2375.00,0.0017
2374.00,0.0017
2373.00,0.0017
2372.00,0.0017
2371.00,0.0017
2370.00,0.0016
2369.00,0.0016
2368.00,0.0016
2367.00,0.0016
2366.00,0.0017
2365.00,0.0017
2364.00,0.0018
2363.00,0.0019
2362.00,0.0019
2361.00,0.0020
2360.00,0.0019
2359.00,0.0019
2358.00,0.0019
2357.00,0.0019
2356.00,0.0019
2355.00,0.0019
2354.00,0.0018
2353.00,0.0018
2352.00,0.0018
2351.00,0.0018
2350.00,0.0019
2349.00,0.0020
2348.00,0.0022
2347.00,0.0024
2346.00,0.0025
2345.00,0.0025
2344.00,0.0025
2343.00,0.0024
2342.00,0.0024
2341.00,0.0024
2340.00,0.0025
2339.00,0.0025
2338.00,0.0025
2337.00,0.0025
2336.00,0.0025
2335.00,0.0024
2334.00,0.0024
2333.00,0.0023
2332.00,0.0023
2331.00,0.0022
2330.00,0.0022
2329.00,0.0024
2328.00,0.0026
2327.00,0.0030
2326.00,0.0033
2325.00,0.0035
2324.00,0.0034
2323.00,0.0032
2322.00,0.0031
2321.00,0.0029
2320.00,0.0028
2319.00,0.0027
2318.00,0.0027
2317.00,0.0026
2316.00,0.0026
2315.00,0.0026
2314.00,0.0027
2313.00,0.0027
2312.00,0.0027
2311.00,0.0027
2310.00,0.0027
2309.00,0.0026
2308.00,0.0026
2307.00,0.0026
2306.00,0.0025
2305.00,0.0025
2304.00,0.0024
2303.00,0.0024
2302.00,0.0024
2301.00,0.0025
2300.00,0.0025
2299.00,0.0025
2298.00,0.0026
2297.00,0.0026
2296.00,0.0026
2295.00,0.0027
2294.00,0.0027
2293.00,0.0028
2292.00,0.0028
2291.00,0.0028
2290.00,0.0029
2289.00,0.0030
2288.00,0.0030
2287.00,0.0030
2286.00,0.0030
2285.00,0.0029
2284.00,0.0028
2283.00,0.0027
2282.00,0.0027
2281.00,0.0027
2280.00,0.0027
2279.00,0.0026
2278.00,0.0026
2277.00,0.0025
2276.00,0.0025
2275.00,0.0025
2274.00,0.0025
2273.00,0.0025
2272.00,0.0025
2271.00,0.0024
2270.00,0.0023
2269.00,0.0023
2268.00,0.0023
2267.00,0.0023
2266.00,0.0022
2265.00,0.0022
2264.00,0.0022
2263.00,0.0023
2262.00,0.0024
2261.00,0.0024
2260.00,0.0025
2259.00,0.0024
2258.00,0.0024
2257.00,0.0023
2256.00,0.0022
2255.00,0.0021
2254.00,0.0021
2253.00,0.0021
2252.00,0.0021
2251.00,0.0021
2250.00,0.0021
2249.00,0.0020
2248.00,0.0020
2247.00,0.0020
2246.00,0.0021
2245.00,0.0021
2244.00,0.0022
2243.00,0.0022
2242.00,0.0022
2241.00,0.0021
2240.00,0.0020
2239.00,0.0020
2238.00,0.0020
2237.00,0.0020
2236.00,0.0020
2235.00,0.0020
2234.00,0.0020
2233.00,0.0020
2232.00,0.0020
2231.00,0.0019
2230.00,0.0019
2229.00,0.0019
2228.00,0.0019
2227.00,0.0020
2226.00,0.0021
2225.00,0.0021
2224.00,0.0021
2223.00,0.0021
2222.00,0.0020
2221.00,0.0020
2220.00,0.0020
2219.00,0.0020
2218.00,0.0019
2217.00,0.0019
2216.00,0.0019
2215.00,0.0019
2214.00,0.0019
2213.00,0.0018
2212.00,0.0018
2211.00,0.0018
2210.00,0.0019
2209.00,0.0019
2208.00,0.0019
2207.00,0.0019
2206.00,0.0019
2205.00,0.0019
2204.00,0.0019
2203.00,0.0019
2202.00,0.0018
2201.00,0.0018
2200.00,0.0018
2199.00,0.0019
2198.00,0.0019
2197.00,0.0020
2196.00,0.0020
2195.00,0.0019
2194.00,0.0019
2193.00,0.0018
2192.00,0.0018
2191.00,0.0019
2190.00,0.0020
2189.00,0.0021
2188.00,0.0020
2187.00,0.0019
2186.00,0.0018
2185.00,0.0017
2184.00,0.0015
2183.00,0.0013
2182.00,0.0012
2181.00,0.0012
2180.00,0.0014
2179.00,0.0015
2178.00,0.0015
2177.00,0.0014
2176.00,0.0013
2175.00,0.0014
2174.00,0.0014
2173.00,0.0015
2172.00,0.0016
2171.00,0.0018
2170.00,0.0020
2169.00,0.0022
2168.00,0.0024
2167.00,0.0025
2166.00,0.0027
2165.00,0.0028
2164.00,0.0030
2163.00,0.0031
2162.00,0.0026
2161.00,0.0016
2160.00,0.0003
2159.00,-0.0008
2158.00,-0.0014
2157.00,-0.0014
2156.00,-0.0012
2155.00,-0.0009
2154.00,-0.0006
2153.00,-0.0004
2152.00,-0.0003
2151.00,-0.0002
2150.00,-0.0002
2149.00,-0.0002
2148.00,-0.0003
2147.00,-0.0003
2146.00,-0.0003
2145.00,-0.0003
2144.00,-0.0003
2143.00,-0.0003
2142.00,-0.0003
2141.00,-0.0002
2140.00,-0.0001
2139.00,-0.0000
2138.00,-0.0001
2137.00,-0.0002
2136.00,-0.0004
2135.00,-0.0006
2134.00,-0.0006
2133.00,-0.0005
2132.00,-0.0003
2131.00,-0.0002
2130.00,-0.0000
2129.00,0.0001
2128.00,0.0002
2127.00,0.0003
2126.00,0.0004
2125.00,0.0005
2124.00,0.0006
2123.00,0.0007
2122.00,0.0008
2121.00,0.0009
2120.00,0.0010
2119.00,0.0011
2118.00,0.0012
2117.00,0.0013
2116.00,0.0014
2115.00,0.0015
2114.00,0.0015
2113.00,0.0015
2112.00,0.0015
2111.00,0.0016
2110.00,0.0016
2109.00,0.0015
2108.00,0.0015
2107.00,0.0014
2106.00,0.0014
2105.00,0.0014
2104.00,0.0014
2103.00,0.0013
2102.00,0.0013
2101.00,0.0013
2100.00,0.0013
2099.00,0.0013
2098.00,0.0013
2097.00,0.0012
2096.00,0.0011
2095.00,0.0011
2094.00,0.0011
2093.00,0.0012
2092.00,0.0013
2091.00,0.0014
2090.00,0.0015
2089.00,0.0015
2088.00,0.0015
2087.00,0.0015
2086.00,0.0015
2085.00,0.0014
2084.00,0.0015
2083.00,0.0015
2082.00,0.0015
2081.00,0.0015
2080.00,0.0015
2079.00,0.0015
2078.00,0.0015
2077.00,0.0015
2076.00,0.0015
2075.00,0.0015
2074.00,0.0015
2073.00,0.0015
2072.00,0.0016
2071.00,0.0015
2070.00,0.0014
2069.00,0.0012
2068.00,0.0011
2067.00,0.0011
2066.00,0.0011
2065.00,0.0012
2064.00,0.0012
2063.00,0.0013
2062.00,0.0013
2061.00,0.0013
2060.00,0.0013
2059.00,0.0013
2058.00,0.0013
2057.00,0.0012
2056.00,0.0012
2055.00,0.0013
2054.00,0.0016
2053.00,0.0020
2052.00,0.0023
2051.00,0.0025
2050.00,0.0023
2049.00,0.0020
2048.00,0.0017
2047.00,0.0015
2046.00,0.0013
2045.00,0.0013
2044.00,0.0013
2043.00,0.0013
2042.00,0.0013
2041.00,0.0013
2040.00,0.0012
2039.00,0.0012
2038.00,0.0013
2037.00,0.0012
2036.00,0.0011
2035.00,0.0010
2034.00,0.0008
2033.00,0.0007
2032.00,0.0007
2031.00,0.0008
2030.00,0.0009
2029.00,0.0010
2028.00,0.0010
2027.00,0.0010
2026.00,0.0009
2025.00,0.0008
2024.00,0.0007
2023.00,0.0007
2022.00,0.0007
2021.00,0.0008
2020.00,0.0008
2019.00,0.0008
2018.00,0.0008
2017.00,0.0008
2016.00,0.0008
2015.00,0.0008
2014.00,0.0008
2013.00,0.0008
2012.00,0.0008
2011.00,0.0009
2010.00,0.0009
2009.00,0.0007
2008.00,0.0005
2007.00,0.0003
2006.00,0.0001
2005.00,0.0001
2004.00,0.0001
2003.00,0.0002
2002.00,0.0003
2001.00,0.0005
2000.00,0.0007
1999.00,0.0009
1998.00,0.0010
1997.00,0.0011
1996.00,0.0012
1995.00,0.0012
1994.00,0.0012
1993.00,0.0012
1992.00,0.0012
1991.00,0.0013
1990.00,0.0013
1989.00,0.0015
1988.00,0.0016
1987.00,0.0018
1986.00,0.0021
1985.00,0.0022
1984.00,0.0024
1983.00,0.0026
1982.00,0.0028
1981.00,0.0029
1980.00,0.0027
1979.00,0.0022
1978.00,0.0016
1977.00,0.0011
1976.00,0.0009
1975.00,0.0009
1974.00,0.0010
1973.00,0.0011
1972.00,0.0012
1971.00,0.0013
1970.00,0.0014
1969.00,0.0016
1968.00,0.0017
1967.00,0.0017
1966.00,0.0017
1965.00,0.0018
1964.00,0.0018
1963.00,0.0018
1962.00,0.0017
1961.00,0.0016
1960.00,0.0015
1959.00,0.0017
1958.00,0.0019
1957.00,0.0022
1956.00,0.0025
1955.00,0.0028
1954.00,0.0030
1953.00,0.0032
1952.00,0.0034
1951.00,0.0035
1950.00,0.0037
1949.00,0.0038
1948.00,0.0040
1947.00,0.0040
1946.00,0.0041
1945.00,0.0041
1944.00,0.0042
1943.00,0.0042
1942.00,0.0042
1941.00,0.0042
1940.00,0.0041
1939.00,0.0040
1938.00,0.0038
1937.00,0.0037
1936.00,0.0036
1935.00,0.0035
1934.00,0.0032
1933.00,0.0030
1932.00,0.0027
1931.00,0.0025
1930.00,0.0023
1929.00,0.0021
1928.00,0.0019
1927.00,0.0018
1926.00,0.0017
1925.00,0.0016
1924.00,0.0016
1923.00,0.0016
1922.00,0.0017
1921.00,0.0017
1920.00,0.0017
1919.00,0.0016
1918.00,0.0015
1917.00,0.0015
1916.00,0.0015
1915.00,0.0015
1914.00,0.0015
1913.00,0.0015
1912.00,0.0015
1911.00,0.0015
1910.00,0.0015
1909.00,0.0015
1908.00,0.0015
1907.00,0.0015
1906.00,0.0015
1905.00,0.0015
1904.00,0.0016
1903.00,0.0016
1902.00,0.0017
1901.00,0.0018
1900.00,0.0019
1899.00,0.0019
1898.00,0.0020
1897.00,0.0021
1896.00,0.0021
1895.00,0.0023
1894.00,0.0024
1893.00,0.0025
1892.00,0.0026
1891.00,0.0027
1890.00,0.0028
1889.00,0.0030
1888.00,0.0031
1887.00,0.0032
1886.00,0.0033
1885.00,0.0034
1884.00,0.0034
1883.00,0.0035
1882.00,0.0035
1881.00,0.0036
1880.00,0.0036
1879.00,0.0037
1878.00,0.0038
1877.00,0.0039
1876.00,0.0039
1875.00,0.0040
1874.00,0.0040
1873.00,0.0041
1872.00,0.0041
1871.00,0.0041
1870.00,0.0041
1869.00,0.0041
1868.00,0.0041
1867.00,0.0041
1866.00,0.0040
1865.00,0.0039
1864.00,0.0038
1863.00,0.0036
1862.00,0.0034
1861.00,0.0032
1860.00,0.0031
1859.00,0.0029
1858.00,0.0028
1857.00,0.0026
1856.00,0.0024
1855.00,0.0023
1854.00,0.0022
1853.00,0.0021
1852.00,0.0020
1851.00,0.0019
1850.00,0.0019
1849.00,0.0019
1848.00,0.0019
1847.00,0.0019
1846.00,0.0018
1845.00,0.0017
1844.00,0.0017
1843.00,0.0017
1842.00,0.0017
1841.00,0.0017
1840.00,0.0017
1839.00,0.0017
1838.00,0.0017
1837.00,0.0017
1836.00,0.0017
1835.00,0.0018
1834.00,0.0018
1833.00,0.0019
1832.00,0.0019
1831.00,0.0020
1830.00,0.0021
1829.00,0.0022
1828.00,0.0022
1827.00,0.0023
1826.00,0.0024
1825.00,0.0025
1824.00,0.0026
1823.00,0.0027
1822.00,0.0028
1821.00,0.0028
1820.00,0.0029
1819.00,0.0029
1818.00,0.0029
1817.00,0.0030
1816.00,0.0031
1815.00,0.0033
1814.00,0.0034
1813.00,0.0036
1812.00,0.0037
1811.00,0.0039
1810.00,0.0041
1809.00,0.0042
1808.00,0.0044
1807.00,0.0045
1806.00,0.0046
1805.00,0.0047
1804.00,0.0047
1803.00,0.0048
1802.00,0.0048
1801.00,0.0048
1800.00,0.0048
1799.00,0.0047
1798.00,0.0045
1797.00,0.0044
1796.00,0.0042
1795.00,0.0040
1794.00,0.0039
1793.00,0.0037
1792.00,0.0035
1791.00,0.0033
1790.00,0.0032
1789.00,0.0030
1788.00,0.0029
1787.00,0.0028
1786.00,0.0027
1785.00,0.0026
1784.00,0.0026
1783.00,0.0025
1782.00,0.0025
1781.00,0.0025
1780.00,0.0025
1779.00,0.0025
1778.00,0.0025
1777.00,0.0025
1776.00,0.0025
1775.00,0.0025
1774.00,0.0026
1773.00,0.0025
1772.00,0.0025
1771.00,0.0025
1770.00,0.0025
1769.00,0.0025
1768.00,0.0026
1767.00,0.0026
1766.00,0.0027
1765.00,0.0027
1764.00,0.0027
1763.00,0.0028
1762.00,0.0029
1761.00,0.0031
1760.00,0.0031
1759.00,0.0032
1758.00,0.0034
1757.00,0.0035
1756.00,0.0037
1755.00,0.0038
1754.00,0.0040
1753.00,0.0041
1752.00,0.0042
1751.00,0.0044
1750.00,0.0045
1749.00,0.0046
1748.00,0.0047
1747.00,0.0048
1746.00,0.0049
1745.00,0.0049
1744.00,0.0049
1743.00,0.0050
1742.00,0.0050
1741.00,0.0049
1740.00,0.0049
1739.00,0.0049
1738.00,0.0048
1737.00,0.0048
1736.00,0.0047
1735.00,0.0046
1734.00,0.0045
1733.00,0.0044
1732.00,0.0044
1731.00,0.0043
1730.00,0.0042
1729.00,0.0041
1728.00,0.0040
1727.00,0.0039
1726.00,0.0038
1725.00,0.0037
1724.00,0.0036
1723.00,0.0035
1722.00,0.0035
1721.00,0.0034
1720.00,0.0034
1719.00,0.0034
1718.00,0.0033
1717.00,0.0033
1716.00,0.0032
1715.00,0.0032
1714.00,0.0031
1713.00,0.0031
1712.00,0.0031
1711.00,0.0030
1710.00,0.0030
1709.00,0.0030
1708.00,0.0029
1707.00,0.0029
1706.00,0.0030
1705.00,0.0030
1704.00,0.0030
1703.00,0.0031
1702.00,0.0031
1701.00,0.0030
1700.00,0.0030
1699.00,0.0029
1698.00,0.0029
1697.00,0.0029
1696.00,0.0029
1695.00,0.0030
1694.00,0.0029
1693.00,0.0029
1692.00,0.0029
1691.00,0.0029
1690.00,0.0030
1689.00,0.0030
1688.00,0.0030
1687.00,0.0031
1686.00,0.0031
1685.00,0.0031
1684.00,0.0032
1683.00,0.0033
1682.00,0.0033
1681.00,0.0033
1680.00,0.0034
1679.00,0.0034
1678.00,0.0034
1677.00,0.0034
1676.00,0.0034
1675.00,0.0034
1674.00,0.0034
1673.00,0.0034
1672.00,0.0034
1671.00,0.0034
1670.00,0.0034
1669.00,0.0034
1668.00,0.0034
1667.00,0.0034
1666.00,0.0033
1665.00,0.0033
1664.00,0.0032
1663.00,0.0032
1662.00,0.0031
1661.00,0.0030
1660.00,0.0030
1659.00,0.0030
1658.00,0.0029
1657.00,0.0029
1656.00,0.0028
1655.00,0.0028
1654.00,0.0028
1653.00,0.0027
1652.00,0.0026
1651.00,0.0026
1650.00,0.0025
1649.00,0.0025
1648.00,0.0025
1647.00,0.0025
1646.00,0.0025
1645.00,0.0025
1644.00,0.0025
1643.00,0.0025
1642.00,0.0025
1641.00,0.0025
1640.00,0.0025
1639.00,0.0025
1638.00,0.0025
1637.00,0.0025
1636.00,0.0025
1635.00,0.0025
1634.00,0.0025
1633.00,0.0025
1632.00,0.0025
1631.00,0.0026
1630.00,0.0026
1629.00,0.0027
1628.00,0.0027
1627.00,0.0028
1626.00,0.0029
1625.00,0.0029
1624.00,0.0030
1623.00,0.0031
1622.00,0.0032
1621.00,0.0033
1620.00,0.0034
1619.00,0.0035
1618.00,0.0036
1617.00,0.0038
1616.00,0.0040
1615.00,0.0043
1614.00,0.0046
1613.00,0.0050
1612.00,0.0055
1611.00,0.0062
1610.00,0.0073
1609.00,0.0087
1608.00,0.0106
1607.00,0.0129
1606.00,0.0157
1605.00,0.0187
1604.00,0.0219
1603.00,0.0246
1602.00,0.0265
1601.00,0.0271
1600.00,0.0263
1599.00,0.0243
1598.00,0.0216
1597.00,0.0187
1596.00,0.0161
1595.00,0.0138
1594.00,0.0121
1593.00,0.0107
1592.00,0.0097
1591.00,0.0089
1590.00,0.0084
1589.00,0.0081
1588.00,0.0082
1587.00,0.0088
1586.00,0.0096
1585.00,0.0106
1584.00,0.0114
1583.00,0.0116
1582.00,0.0111
1581.00,0.0101
1580.00,0.0089
1579.00,0.0077
1578.00,0.0067
1577.00,0.0059
1576.00,0.0053
1575.00,0.0048
1574.00,0.0045
1573.00,0.0043
1572.00,0.0041
1571.00,0.0039
1570.00,0.0037
1569.00,0.0036
1568.00,0.0035
1567.00,0.0034
1566.00,0.0034
1565.00,0.0033
1564.00,0.0033
1563.00,0.0033
1562.00,0.0033
1561.00,0.0034
1560.00,0.0034
1559.00,0.0034
1558.00,0.0034
1557.00,0.0035
1556.00,0.0035
1555.00,0.0036
1554.00,0.0037
1553.00,0.0039
1552.00,0.0040
1551.00,0.0041
1550.00,0.0043
1549.00,0.0044
1548.00,0.0046
1547.00,0.0047
1546.00,0.0048
1545.00,0.0049
1544.00,0.0050
1543.00,0.0051
1542.00,0.0051
1541.00,0.0051
1540.00,0.0050
1539.00,0.0049
1538.00,0.0048
1537.00,0.0047
1536.00,0.0046
1535.00,0.0045
1534.00,0.0044
1533.00,0.0042
1532.00,0.0041
1531.00,0.0039
1530.00,0.0038
1529.00,0.0038
1528.00,0.0037
1527.00,0.0036
1526.00,0.0036
1525.00,0.0035
1524.00,0.0035
1523.00,0.0035
1522.00,0.0034
1521.00,0.0034
1520.00,0.0034
1519.00,0.0034
1518.00,0.0035
1517.00,0.0035
1516.00,0.0035
1515.00,0.0036
1514.00,0.0037
1513.00,0.0038
1512.00,0.0039
1511.00,0.0040
1510.00,0.0042
1509.00,0.0044
1508.00,0.0046
1507.00,0.0049
1506.00,0.0052
1505.00,0.0056
1504.00,0.0062
1503.00,0.0069
1502.00,0.0079
1501.00,0.0094
1500.00,0.0116
1499.00,0.0151
1498.00,0.0206
1497.00,0.0290
1496.00,0.0401
1495.00,0.0518
1494.00,0.0615
1493.00,0.0670
1492.00,0.0669
1491.00,0.0609
1490.00,0.0509
1489.00,0.0404
1488.00,0.0319
1487.00,0.0256
1486.00,0.0209
1485.00,0.0174
1484.00,0.0147
1483.00,0.0126
1482.00,0.0109
1481.00,0.0096
1480.00,0.0087
1479.00,0.0080
1478.00,0.0075
1477.00,0.0070
1476.00,0.0067
1475.00,0.0063
1474.00,0.0060
1473.00,0.0058
1472.00,0.0058
1471.00,0.0059
1470.00,0.0060
1469.00,0.0062
1468.00,0.0064
1467.00,0.0066
1466.00,0.0067
1465.00,0.0069
1464.00,0.0072
1463.00,0.0077
1462.00,0.0084
1461.00,0.0094
1460.00,0.0110
1459.00,0.0136
1458.00,0.0184
1457.00,0.0266
1456.00,0.0374
1455.00,0.0482
1454.00,0.0576
1453.00,0.0647
1452.00,0.0682
1451.00,0.0675
1450.00,0.0637
1449.00,0.0583
1448.00,0.0529
1447.00,0.0480
1446.00,0.0440
1445.00,0.0405
1444.00,0.0371
1443.00,0.0339
1442.00,0.0310
1441.00,0.0284
1440.00,0.0261
1439.00,0.0241
1438.00,0.0220
1437.00,0.0198
1436.00,0.0175
1435.00,0.0156
1434.00,0.0140
1433.00,0.0127
1432.00,0.0115
1431.00,0.0103
1430.00,0.0094
1429.00,0.0086
1428.00,0.0079
1427.00,0.0074
1426.00,0.0070
1425.00,0.0067
1424.00,0.0064
1423.00,0.0061
1422.00,0.0060
1421.00,0.0058
1420.00,0.0057
1419.00,0.0055
1418.00,0.0054
1417.00,0.0053
1416.00,0.0051
1415.00,0.0050
1414.00,0.0049
1413.00,0.0048
1412.00,0.0046
1411.00,0.0045
1410.00,0.0044
1409.00,0.0043
1408.00,0.0042
1407.00,0.0041
1406.00,0.0040
1405.00,0.0039
1404.00,0.0038
1403.00,0.0036
1402.00,0.0035
1401.00,0.0033
1400.00,0.0032
1399.00,0.0031
1398.00,0.0030
1397.00,0.0029
1396.00,0.0029
1395.00,0.0030
1394.00,0.0032
1393.00,0.0034
1392.00,0.0037
1391.00,0.0040
1390.00,0.0044
1389.00,0.0048
1388.00,0.0053
1387.00,0.0057
1386.00,0.0062
1385.00,0.0066
1384.00,0.0070
1383.00,0.0074
1382.00,0.0078
1381.00,0.0082
1380.00,0.0087
1379.00,0.0092
1378.00,0.0098
1377.00,0.0103
1376.00,0.0108
1375.00,0.0113
1374.00,0.0117
1373.00,0.0120
1372.00,0.0121
1371.00,0.0123
1370.00,0.0123
1369.00,0.0124
1368.00,0.0124
1367.00,0.0124
1366.00,0.0124
1365.00,0.0124
1364.00,0.0123
1363.00,0.0123
1362.00,0.0122
1361.00,0.0121
1360.00,0.0119
1359.00,0.0117
1358.00,0.0115
1357.00,0.0114
1356.00,0.0113
1355.00,0.0112
1354.00,0.0112
1353.00,0.0112
1352.00,0.0112
1351.00,0.0113
1350.00,0.0113
1349.00,0.0113
1348.00,0.0112
1347.00,0.0111
1346.00,0.0109
1345.00,0.0108
1344.00,0.0106
1343.00,0.0104
1342.00,0.0102
1341.00,0.0100
1340.00,0.0099
1339.00,0.0098
1338.00,0.0098
1337.00,0.0099
1336.00,0.0100
1335.00,0.0103
1334.00,0.0106
1333.00,0.0109
1332.00,0.0112
1331.00,0.0115
1330.00,0.0118
1329.00,0.0120
1328.00,0.0120
1327.00,0.0119
1326.00,0.0118
1325.00,0.0116
1324.00,0.0114
1323.00,0.0113
1322.00,0.0112
1321.00,0.0111
1320.00,0.0111
1319.00,0.0111
1318.00,0.0112
1317.00,0.0113
1316.00,0.0114
1315.00,0.0116
1314.00,0.0118
1313.00,0.0119
1312.00,0.0119
1311.00,0.0118
1310.00,0.0117
1309.00,0.0116
1308.00,0.0114
1307.00,0.0112
1306.00,0.0110
1305.00,0.0108
1304.00,0.0106
1303.00,0.0104
1302.00,0.0102
1301.00,0.0099
1300.00,0.0097
1299.00,0.0095
1298.00,0.0094
1297.00,0.0093
1296.00,0.0092
1295.00,0.0091
1294.00,0.0090
1293.00,0.0089
1292.00,0.0088
1291.00,0.0087
1290.00,0.0086
1289.00,0.0085
1288.00,0.0084
1287.00,0.0083
1286.00,0.0082
1285.00,0.0082
1284.00,0.0081
1283.00,0.0081
1282.00,0.0080
1281.00,0.0080
1280.00,0.0078
1279.00,0.0077
1278.00,0.0075
1277.00,0.0073
1276.00,0.0070
1275.00,0.0067
1274.00,0.0065
1273.00,0.0063
1272.00,0.0060
1271.00,0.0058
1270.00,0.0056
1269.00,0.0054
1268.00,0.0052
1267.00,0.0051
1266.00,0.0050
1265.00,0.0050
1264.00,0.0049
1263.00,0.0048
1262.00,0.0047
1261.00,0.0047
1260.00,0.0046
1259.00,0.0045
1258.00,0.0045
1257.00,0.0045
1256.00,0.0044
1255.00,0.0044
1254.00,0.0043
1253.00,0.0043
1252.00,0.0043
1251.00,0.0044
1250.00,0.0044
1249.00,0.0045
1248.00,0.0046
1247.00,0.0047
1246.00,0.0048
1245.00,0.0049
1244.00,0.0049
1243.00,0.0049
1242.00,0.0049
1241.00,0.0049
1240.00,0.0049
1239.00,0.0049
1238.00,0.0049
1237.00,0.0050
1236.00,0.0050
1235.00,0.0050
1234.00,0.0051
1233.00,0.0051
1232.00,0.0052
1231.00,0.0052
1230.00,0.0054
1229.00,0.0055
1228.00,0.0056
1227.00,0.0057
1226.00,0.0058
1225.00,0.0058
1224.00,0.0058
1223.00,0.0058
1222.00,0.0059
1221.00,0.0059
1220.00,0.0059
1219.00,0.0060
1218.00,0.0060
1217.00,0.0061
1216.00,0.0062
1215.00,0.0063
1214.00,0.0064
1213.00,0.0065
1212.00,0.0066
1211.00,0.0067
1210.00,0.0069
1209.00,0.0071
1208.00,0.0073
1207.00,0.0075
1206.00,0.0077
1205.00,0.0079
1204.00,0.0082
1203.00,0.0084
1202.00,0.0087
1201.00,0.0089
1200.00,0.0092
1199.00,0.0094
1198.00,0.0095
1197.00,0.0096
1196.00,0.0097
1195.00,0.0097
1194.00,0.0098
1193.00,0.0098
1192.00,0.0098
1191.00,0.0098
1190.00,0.0098
1189.00,0.0099
1188.00,0.0101
1187.00,0.0104
1186.00,0.0109
1185.00,0.0114
1184.00,0.0120
1183.00,0.0125
1182.00,0.0129
1181.00,0.0128
1180.00,0.0124
1179.00,0.0116
1178.00,0.0106
1177.00,0.0096
1176.00,0.0086
1175.00,0.0077
1174.00,0.0070
1173.00,0.0066
1172.00,0.0062
1171.00,0.0059
1170.00,0.0056
1169.00,0.0055
1168.00,0.0053
1167.00,0.0052
1166.00,0.0052
1165.00,0.0052
1164.00,0.0052
1163.00,0.0054
1162.00,0.0057
1161.00,0.0062
1160.00,0.0068
1159.00,0.0077
1158.00,0.0087
1157.00,0.0097
1156.00,0.0105
1155.00,0.0110
1154.00,0.0110
1153.00,0.0104
1152.00,0.0094
1151.00,0.0083
1150.00,0.0071
1149.00,0.0061
1148.00,0.0053
1147.00,0.0047
1146.00,0.0043
1145.00,0.0040
1144.00,0.0037
1143.00,0.0035
1142.00,0.0033
1141.00,0.0032
1140.00,0.0030
1139.00,0.0029
1138.00,0.0028
1137.00,0.0028
1136.00,0.0028
1135.00,0.0028
1134.00,0.0029
1133.00,0.0029
1132.00,0.0029
1131.00,0.0029
1130.00,0.0030
1129.00,0.0031
1128.00,0.0032
1127.00,0.0033
1126.00,0.0034
1125.00,0.0035
1124.00,0.0037
1123.00,0.0038
1122.00,0.0040
1121.00,0.0043
1120.00,0.0045
1119.00,0.0048
1118.00,0.0052
1117.00,0.0055
1116.00,0.0058
1115.00,0.0061
1114.00,0.0063
1113.00,0.0065
1112.00,0.0066
1111.00,0.0066
1110.00,0.0066
1109.00,0.0066
1108.00,0.0066
1107.00,0.0065
1106.00,0.0064
1105.00,0.0064
1104.00,0.0064
1103.00,0.0064
1102.00,0.0065
1101.00,0.0065
1100.00,0.0065
1099.00,0.0066
1098.00,0.0067
1097.00,0.0068
1096.00,0.0069
1095.00,0.0070
1094.00,0.0071
1093.00,0.0071
1092.00,0.0072
1091.00,0.0072
1090.00,0.0074
1089.00,0.0075
1088.00,0.0077
1087.00,0.0079
1086.00,0.0082
1085.00,0.0085
1084.00,0.0089
1083.00,0.0094
1082.00,0.0098
1081.00,0.0103
1080.00,0.0108
1079.00,0.0112
1078.00,0.0117
1077.00,0.0123
1076.00,0.0130
1075.00,0.0137
1074.00,0.0146
1073.00,0.0155
1072.00,0.0163
1071.00,0.0170
1070.00,0.0175
1069.00,0.0178
1068.00,0.0178
1067.00,0.0175
1066.00,0.0170
1065.00,0.0163
1064.00,0.0155
1063.00,0.0148
1062.00,0.0141
1061.00,0.0134
1060.00,0.0128
1059.00,0.0122
1058.00,0.0117
1057.00,0.0113
1056.00,0.0110
1055.00,0.0107
1054.00,0.0106
1053.00,0.0104
1052.00,0.0102
1051.00,0.0100
1050.00,0.0098
1049.00,0.0097
1048.00,0.0096
1047.00,0.0094
1046.00,0.0094
1045.00,0.0094
1044.00,0.0093
1043.00,0.0094
1042.00,0.0096
1041.00,0.0098
1040.00,0.0102
1039.00,0.0107
1038.00,0.0116
1037.00,0.0129
1036.00,0.0148
1035.00,0.0173
1034.00,0.0204
1033.00,0.0238
1032.00,0.0272
1031.00,0.0303
1030.00,0.0329
1029.00,0.0347
1028.00,0.0354
1027.00,0.0348
1026.00,0.0332
1025.00,0.0309
1024.00,0.0283
1023.00,0.0258
1022.00,0.0238
1021.00,0.0220
1020.00,0.0205
1019.00,0.0193
1018.00,0.0183
1017.00,0.0174
1016.00,0.0166
1015.00,0.0159
1014.00,0.0153
1013.00,0.0148
1012.00,0.0143
1011.00,0.0140
1010.00,0.0137
1009.00,0.0136
1008.00,0.0135
1007.00,0.0137
1006.00,0.0141
1005.00,0.0145
1004.00,0.0148
1003.00,0.0147
1002.00,0.0143
1001.00,0.0136
1000.00,0.0127
999.00,0.0118
998.00,0.0112
997.00,0.0107
996.00,0.0104
995.00,0.0102
994.00,0.0102
993.00,0.0101
992.00,0.0102
991.00,0.0102
990.00,0.0104
989.00,0.0106
988.00,0.0108
987.00,0.0110
986.00,0.0114
985.00,0.0117
984.00,0.0120
983.00,0.0123
982.00,0.0125
981.00,0.0126
980.00,0.0126
979.00,0.0125
978.00,0.0123
977.00,0.0119
976.00,0.0114
975.00,0.0109
974.00,0.0105
973.00,0.0102
972.00,0.0100
971.00,0.0101
970.00,0.0103
969.00,0.0106
968.00,0.0110
967.00,0.0114
966.00,0.0118
965.00,0.0120
964.00,0.0121
963.00,0.0119
962.00,0.0116
961.00,0.0110
960.00,0.0102
959.00,0.0094
958.00,0.0087
957.00,0.0081
956.00,0.0076
955.00,0.0074
954.00,0.0072
953.00,0.0072
952.00,0.0072
951.00,0.0073
950.00,0.0075
949.00,0.0077
948.00,0.0079
947.00,0.0082
946.00,0.0084
945.00,0.0087
944.00,0.0088
943.00,0.0089
942.00,0.0090
941.00,0.0089
940.00,0.0088
939.00,0.0086
938.00,0.0083
937.00,0.0081
936.00,0.0078
935.00,0.0075
934.00,0.0073
933.00,0.0072
932.00,0.0071
931.00,0.0070
930.00,0.0069
929.00,0.0070
928.00,0.0070
927.00,0.0071
926.00,0.0073
925.00,0.0075
924.00,0.0077
923.00,0.0080
922.00,0.0083
921.00,0.0087
920.00,0.0091
919.00,0.0096
918.00,0.0103
917.00,0.0111
916.00,0.0120
915.00,0.0131
914.00,0.0144
913.00,0.0159
912.00,0.0175
911.00,0.0192
910.00,0.0209
909.00,0.0223
908.00,0.0234
907.00,0.0239
906.00,0.0240
905.00,0.0235
904.00,0.0225
903.00,0.0211
902.00,0.0195
901.00,0.0178
900.00,0.0159
899.00,0.0142
898.00,0.0127
897.00,0.0115
896.00,0.0104
895.00,0.0097
894.00,0.0091
893.00,0.0087
892.00,0.0083
891.00,0.0080
890.00,0.0077
889.00,0.0075
888.00,0.0073
887.00,0.0070
886.00,0.0069
885.00,0.0067
884.00,0.0065
883.00,0.0064
882.00,0.0064
881.00,0.0063
880.00,0.0062
879.00,0.0061
878.00,0.0061
877.00,0.0060
876.00,0.0059
875.00,0.0059
874.00,0.0058
873.00,0.0058
872.00,0.0057
871.00,0.0056
870.00,0.0056
869.00,0.0056
868.00,0.0055
867.00,0.0055
866.00,0.0055
865.00,0.0055
864.00,0.0055
863.00,0.0055
862.00,0.0055
861.00,0.0056
860.00,0.0056
859.00,0.0056
858.00,0.0056
857.00,0.0057
856.00,0.0058
855.00,0.0059
854.00,0.0062
853.00,0.0065
852.00,0.0068
851.00,0.0073
850.00,0.0079
849.00,0.0085
848.00,0.0091
847.00,0.0098
846.00,0.0105
845.00,0.0112
844.00,0.0117
843.00,0.0121
842.00,0.0123
841.00,0.0123
840.00,0.0120
839.00,0.0115
838.00,0.0109
837.00,0.0101
836.00,0.0092
835.00,0.0083
834.00,0.0075
833.00,0.0069
832.00,0.0063
831.00,0.0059
830.00,0.0056
829.00,0.0054
828.00,0.0052
827.00,0.0051
826.00,0.0050
825.00,0.0050
824.00,0.0050
823.00,0.0050
822.00,0.0050
821.00,0.0050
820.00,0.0050
819.00,0.0049
818.00,0.0050
817.00,0.0050
816.00,0.0049
815.00,0.0049
814.00,0.0050
813.00,0.0052
812.00,0.0053
811.00,0.0054
810.00,0.0055
809.00,0.0056
808.00,0.0056
807.00,0.0057
806.00,0.0058
805.00,0.0059
804.00,0.0060
803.00,0.0061
802.00,0.0062
801.00,0.0064
800.00,0.0066
799.00,0.0068
798.00,0.0072
797.00,0.0076
796.00,0.0080
795.00,0.0084
794.00,0.0089
793.00,0.0095
792.00,0.0101
791.00,0.0107
790.00,0.0115
789.00,0.0123
788.00,0.0130
787.00,0.0138
786.00,0.0147
785.00,0.0156
784.00,0.0165
783.00,0.0175
782.00,0.0187
781.00,0.0201
780.00,0.0217
779.00,0.0235
778.00,0.0256
777.00,0.0280
776.00,0.0306
775.00,0.0334
774.00,0.0366
773.00,0.0400
772.00,0.0437
771.00,0.0477
770.00,0.0519
769.00,0.0562
768.00,0.0604
767.00,0.0646
766.00,0.0688
765.00,0.0729
764.00,0.0771
763.00,0.0813
762.00,0.0857
761.00,0.0901
760.00,0.0944
759.00,0.0984
758.00,0.1019
757.00,0.1047
756.00,0.1065
755.00,0.1073
754.00,0.1074
753.00,0.1071
752.00,0.1065
751.00,0.1060
750.00,0.1058
749.00,0.1054
748.00,0.1046
747.00,0.1029
746.00,0.0999
745.00,0.0953
744.00,0.0893
743.00,0.0823
742.00,0.0751
741.00,0.0679
740.00,0.0611
739.00,0.0549
738.00,0.0494
737.00,0.0442
736.00,0.0392
735.00,0.0345
734.00,0.0301
733.00,0.0260
732.00,0.0225
731.00,0.0196
730.00,0.0174
729.00,0.0158
728.00,0.0146
727.00,0.0137
726.00,0.0131
725.00,0.0126
724.00,0.0123
723.00,0.0120
722.00,0.0119
721.00,0.0119
720.00,0.0120
719.00,0.0122
718.00,0.0127
717.00,0.0133
716.00,0.0142
715.00,0.0154
714.00,0.0171
713.00,0.0195
712.00,0.0228
711.00,0.0274
710.00,0.0338
709.00,0.0420
708.00,0.0525
707.00,0.0656
706.00,0.0813
705.00,0.0997
704.00,0.1206
703.00,0.1441
702.00,0.1699
701.00,0.1977
700.00,0.2269
699.00,0.2570
698.00,0.2870
697.00,0.3144
696.00,0.3346
695.00,0.3424
694.00,0.3341
693.00,0.3097
692.00,0.2744
691.00,0.2361
690.00,0.2005
689.00,0.1703
688.00,0.1458
687.00,0.1265
686.00,0.1116
685.00,0.0998
684.00,0.0902
683.00,0.0822
682.00,0.0757
681.00,0.0700
680.00,0.0651
679.00,0.0609
678.00,0.0574
677.00,0.0544
676.00,0.0518
675.00,0.0495
674.00,0.0475
673.00,0.0457
672.00,0.0441
671.00,0.0426
670.00,0.0413
669.00,0.0397
668.00,0.0377
667.00,0.0358
666.00,0.0346
665.00,0.0335
664.00,0.0322
663.00,0.0309
662.00,0.0295
661.00,0.0282
660.00,0.0269
659.00,0.0257
658.00,0.0247
657.00,0.0237
656.00,0.0226
655.00,0.0217
654.00,0.0209
653.00,0.0202
652.00,0.0194
651.00,0.0186
650.00,0.0180
649.00,0.0175
648.00,0.0169
647.00,0.0165
646.00,0.0161
645.00,0.0158
644.00,0.0155
643.00,0.0153
642.00,0.0153
641.00,0.0154
640.00,0.0154
639.00,0.0155
638.00,0.0159
637.00,0.0164
636.00,0.0168
635.00,0.0172
634.00,0.0177
633.00,0.0182
632.00,0.0185
631.00,0.0188
630.00,0.0193
629.00,0.0196
628.00,0.0198
627.00,0.0200
626.00,0.0203
625.00,0.0206
624.00,0.0209
623.00,0.0213
622.00,0.0219
621.00,0.0222
620.00,0.0220
619.00,0.0215
618.00,0.0209
617.00,0.0202
616.00,0.0195
615.00,0.0189
614.00,0.0186
613.00,0.0182
612.00,0.0176
611.00,0.0172
610.00,0.0169
609.00,0.0168
608.00,0.0167
607.00,0.0166
606.00,0.0166
605.00,0.0166
604.00,0.0165
603.00,0.0164
602.00,0.0166
601.00,0.0169
600.00,0.0172
599.00,0.0174
598.00,0.0177
597.00,0.0179
596.00,0.0180
595.00,0.0182
594.00,0.0186
593.00,0.0189
592.00,0.0191
591.00,0.0193
590.00,0.0197
589.00,0.0200
588.00,0.0202
587.00,0.0206
586.00,0.0210
585.00,0.0215
584.00,0.0220
583.00,0.0225
582.00,0.0232
581.00,0.0241
580.00,0.0250
579.00,0.0260
578.00,0.0273
577.00,0.0287
576.00,0.0299
575.00,0.0312
574.00,0.0327
573.00,0.0341
572.00,0.0356
571.00,0.0370
570.00,0.0386
569.00,0.0401
568.00,0.0413
567.00,0.0426
566.00,0.0441
565.00,0.0455
564.00,0.0467
563.00,0.0480
562.00,0.0494
561.00,0.0508
560.00,0.0521
559.00,0.0534
558.00,0.0549
557.00,0.0564
556.00,0.0579
555.00,0.0594
554.00,0.0612
553.00,0.0631
552.00,0.0651
551.00,0.0671
550.00,0.0693
549.00,0.0717
548.00,0.0744
547.00,0.0774
546.00,0.0809
545.00,0.0844
544.00,0.0878
543.00,0.0913
542.00,0.0949
541.00,0.0982
540.00,0.1007
539.00,0.1024
538.00,0.1031
537.00,0.1025
536.00,0.1005
535.00,0.0972
534.00,0.0930
533.00,0.0881
532.00,0.0827
531.00,0.0773
530.00,0.0721
529.00,0.0671
528.00,0.0623
527.00,0.0578
526.00,0.0538
525.00,0.0500
524.00,0.0466
523.00,0.0438
522.00,0.0416
521.00,0.0397
520.00,0.0378
519.00,0.0361
518.00,0.0349
517.00,0.0338
516.00,0.0326
515.00,0.0315
514.00,0.0307
513.00,0.0299
512.00,0.0290
511.00,0.0281
510.00,0.0275
509.00,0.0266
508.00,0.0253
507.00,0.0240
506.00,0.0231
505.00,0.0223
504.00,0.0215
503.00,0.0208
502.00,0.0203
501.00,0.0199
500.00,0.0193
499.00,0.0187
498.00,0.0184
497.00,0.0180
496.00,0.0175
495.00,0.0171
494.00,0.0170
493.00,0.0169
492.00,0.0164
491.00,0.0160
490.00,0.0158
489.00,0.0156
488.00,0.0151
487.00,0.0148
486.00,0.0147
485.00,0.0145
484.00,0.0141
483.00,0.0138
482.00,0.0138
481.00,0.0139
480.00,0.0137
479.00,0.0135
478.00,0.0136
477.00,0.0136
476.00,0.0133
475.00,0.0132
474.00,0.0134
473.00,0.0134
472.00,0.0130
471.00,0.0127
470.00,0.0128
469.00,0.0128
468.00,0.0124
467.00,0.0121
466.00,0.0121
465.00,0.0121
464.00,0.0116
463.00,0.0112
462.00,0.0111
461.00,0.0112
460.00,0.0111
459.00,0.0112
458.00,0.0116
457.00,0.0119
456.00,0.0114
455.00,0.0110
454.00,0.0111
453.00,0.0113
452.00,0.0114
451.00,0.0115
450.00,0.0118
449.00,0.0118
448.00,0.0115
447.00,0.0112
446.00,0.0113
445.00,0.0111
444.00,0.0105
443.00,0.0100
442.00,0.0101
441.00,0.0102
440.00,0.0098
439.00,0.0097
438.00,0.0101
437.00,0.0104
436.00,0.0100
435.00,0.0095
434.00,0.0094
433.00,0.0091
432.00,0.0086
431.00,0.0084
430.00,0.0088
429.00,0.0092
428.00,0.0089
427.00,0.0089
426.00,0.0098
425.00,0.0107
424.00,0.0105
423.00,0.0099
422.00,0.0096
421.00,0.0093
420.00,0.0084
419.00,0.0077
418.00,0.0080
417.00,0.0084
416.00,0.0080
415.00,0.0079
414.00,0.0085
413.00,0.0088
412.00,0.0084
411.00,0.0084
410.00,0.0096
409.00,0.0109
408.00,0.0109
407.00,0.0107
406.00,0.0115
405.00,0.0121
404.00,0.0115
403.00,0.0107
402.00,0.0110
401.00,0.0109
400.00,0.0091
