Created as New Dataset,Sample 752 By YargerLab Date Sunday, June 29 2025
cm-1,A
4000.00,0.0010
3999.00,0.0010
3998.00,0.0010
3997.00,0.0010
3996.00,0.0010
3995.00,0.0010
3994.00,0.0010
3993.00,0.0010
3992.00,0.0010
3991.00,0.0010
3990.00,0.0010
3989.00,0.0010
3988.00,0.0010
3987.00,0.0010
3986.00,0.0010
3985.00,0.0010
3984.00,0.0010
3983.00,0.0010
3982.00,0.0010
3981.00,0.0010
3980.00,0.0011
3979.00,0.0011
3978.00,0.0011
3977.00,0.0011
3976.00,0.0011
3975.00,0.0012
3974.00,0.0012
3973.00,0.0011
3972.00,0.0011
3971.00,0.0010
3970.00,0.0010
3969.00,0.0010
3968.00,0.0010
3967.00,0.0010
3966.00,0.0011
3965.00,0.0011
3964.00,0.0011
3963.00,0.0011
3962.00,0.0011
3961.00,0.0010
3960.00,0.0010
3959.00,0.0010
3958.00,0.0010
3957.00,0.0010
3956.00,0.0010
3955.00,0.0010
3954.00,0.0010
3953.00,0.0010
3952.00,0.0010
3951.00,0.0011
3950.00,0.0011
3949.00,0.0012
3948.00,0.0013
3947.00,0.0013
3946.00,0.0013
3945.00,0.0012
3944.00,0.0012
3943.00,0.0011
3942.00,0.0011
3941.00,0.0011
3940.00,0.0011
3939.00,0.0011
3938.00,0.0011
3937.00,0.0011
3936.00,0.0012
3935.00,0.0012
3934.00,0.0013
3933.00,0.0013
3932.00,0.0013
3931.00,0.0013
3930.00,0.0012
3929.00,0.0012
3928.00,0.0011
3927.00,0.0010
3926.00,0.0009
3925.00,0.0009
3924.00,0.0010
3923.00,0.0011
3922.00,0.0012
3921.00,0.0012
3920.00,0.0013
3919.00,0.0013
3918.00,0.0013
3917.00,0.0013
3916.00,0.0013
3915.00,0.0012
3914.00,0.0012
3913.00,0.0011
3912.00,0.0010
3911.00,0.0010
3910.00,0.0009
3909.00,0.0009
3908.00,0.0009
3907.00,0.0010
3906.00,0.0011
3905.00,0.0012
3904.00,0.0015
3903.00,0.0017
3902.00,0.0019
3901.00,0.0018
3900.00,0.0017
3899.00,0.0015
3898.00,0.0014
3897.00,0.0013
3896.00,0.0013
3895.00,0.0013
3894.00,0.0012
3893.00,0.0011
3892.00,0.0011
3891.00,0.0012
3890.00,0.0012
3889.00,0.0014
3888.00,0.0015
3887.00,0.0016
3886.00,0.0016
3885.00,0.0014
3884.00,0.0014
3883.00,0.0014
3882.00,0.0014
3881.00,0.0014
3880.00,0.0014
3879.00,0.0014
3878.00,0.0014
3877.00,0.0014
3876.00,0.0014
3875.00,0.0013
3874.00,0.0012
3873.00,0.0012
3872.00,0.0013
3871.00,0.0015
3870.00,0.0015
3869.00,0.0015
3868.00,0.0015
3867.00,0.0016
3866.00,0.0017
3865.00,0.0016
3864.00,0.0015
3863.00,0.0015
3862.00,0.0015
3861.00,0.0016
3860.00,0.0015
3859.00,0.0014
3858.00,0.0012
3857.00,0.0010
3856.00,0.0010
3855.00,0.0010
3854.00,0.0011
3853.00,0.0013
3852.00,0.0014
3851.00,0.0014
3850.00,0.0014
3849.00,0.0014
3848.00,0.0014
3847.00,0.0014
3846.00,0.0013
3845.00,0.0013
3844.00,0.0013
3843.00,0.0013
3842.00,0.0014
3841.00,0.0014
3840.00,0.0014
3839.00,0.0015
3838.00,0.0015
3837.00,0.0015
3836.00,0.0015
3835.00,0.0015
3834.00,0.0015
3833.00,0.0015
3832.00,0.0015
3831.00,0.0014
3830.00,0.0014
3829.00,0.0013
3828.00,0.0013
3827.00,0.0013
3826.00,0.0013
3825.00,0.0014
3824.00,0.0015
3823.00,0.0016
3822.00,0.0016
3821.00,0.0015
3820.00,0.0014
3819.00,0.0014
3818.00,0.0015
3817.00,0.0015
3816.00,0.0014
3815.00,0.0013
3814.00,0.0012
3813.00,0.0012
3812.00,0.0012
3811.00,0.0012
3810.00,0.0013
3809.00,0.0013
3808.00,0.0013
3807.00,0.0013
3806.00,0.0013
3805.00,0.0012
3804.00,0.0013
3803.00,0.0013
3802.00,0.0013
3801.00,0.0012
3800.00,0.0012
3799.00,0.0013
3798.00,0.0014
3797.00,0.0015
3796.00,0.0015
3795.00,0.0014
3794.00,0.0013
3793.00,0.0012
3792.00,0.0011
3791.00,0.0011
3790.00,0.0010
3789.00,0.0010
3788.00,0.0010
3787.00,0.0010
3786.00,0.0010
3785.00,0.0010
3784.00,0.0011
3783.00,0.0011
3782.00,0.0012
3781.00,0.0012
3780.00,0.0012
3779.00,0.0012
3778.00,0.0012
3777.00,0.0012
3776.00,0.0013
3775.00,0.0012
3774.00,0.0012
3773.00,0.0012
3772.00,0.0012
3771.00,0.0013
3770.00,0.0014
3769.00,0.0014
3768.00,0.0014
3767.00,0.0015
3766.00,0.0015
3765.00,0.0014
3764.00,0.0014
3763.00,0.0014
3762.00,0.0014
3761.00,0.0014
3760.00,0.0014
3759.00,0.0014
3758.00,0.0014
3757.00,0.0015
3756.00,0.0015
3755.00,0.0016
3754.00,0.0017
3753.00,0.0018
3752.00,0.0019
3751.00,0.0022
3750.00,0.0024
3749.00,0.0024
3748.00,0.0024
3747.00,0.0023
3746.00,0.0023
3745.00,0.0023
3744.00,0.0022
3743.00,0.0020
3742.00,0.0020
3741.00,0.0020
3740.00,0.0021
3739.00,0.0022
3738.00,0.0023
3737.00,0.0023
3736.00,0.0022
3735.00,0.0022
3734.00,0.0022
3733.00,0.0022
3732.00,0.0022
3731.00,0.0020
3730.00,0.0019
3729.00,0.0019
3728.00,0.0019
3727.00,0.0019
3726.00,0.0017
3725.00,0.0017
3724.00,0.0016
3723.00,0.0016
3722.00,0.0016
3721.00,0.0015
3720.00,0.0014
3719.00,0.0014
3718.00,0.0013
3717.00,0.0013
3716.00,0.0014
3715.00,0.0015
3714.00,0.0016
3713.00,0.0016
3712.00,0.0016
3711.00,0.0016
3710.00,0.0016
3709.00,0.0017
3708.00,0.0017
3707.00,0.0016
3706.00,0.0015
3705.00,0.0014
3704.00,0.0013
3703.00,0.0012
3702.00,0.0012
3701.00,0.0012
3700.00,0.0012
3699.00,0.0012
3698.00,0.0012
3697.00,0.0011
3696.00,0.0011
3695.00,0.0011
3694.00,0.0012
3693.00,0.0012
3692.00,0.0011
3691.00,0.0010
3690.00,0.0011
3689.00,0.0012
3688.00,0.0013
3687.00,0.0013
3686.00,0.0011
3685.00,0.0010
3684.00,0.0010
3683.00,0.0009
3682.00,0.0008
3681.00,0.0007
3680.00,0.0006
3679.00,0.0005
3678.00,0.0005
3677.00,0.0006
3676.00,0.0006
3675.00,0.0006
3674.00,0.0005
3673.00,0.0004
3672.00,0.0004
3671.00,0.0004
3670.00,0.0002
3669.00,0.0001
3668.00,-0.0001
3667.00,-0.0002
3666.00,-0.0003
3665.00,-0.0004
3664.00,-0.0005
3663.00,-0.0005
3662.00,-0.0006
3661.00,-0.0006
3660.00,-0.0006
3659.00,-0.0005
3658.00,-0.0005
3657.00,-0.0004
3656.00,-0.0003
3655.00,-0.0002
3654.00,-0.0001
3653.00,0.0001
3652.00,0.0002
3651.00,0.0003
3650.00,0.0003
3649.00,0.0005
3648.00,0.0006
3647.00,0.0006
3646.00,0.0005
3645.00,0.0004
3644.00,0.0003
3643.00,0.0002
3642.00,0.0001
3641.00,-0.0000
3640.00,-0.0000
3639.00,-0.0001
3638.00,-0.0000
3637.00,0.0000
3636.00,0.0002
3635.00,0.0004
3634.00,0.0006
3633.00,0.0008
3632.00,0.0010
3631.00,0.0013
3630.00,0.0014
3629.00,0.0015
3628.00,0.0016
3627.00,0.0016
3626.00,0.0015
3625.00,0.0015
3624.00,0.0014
3623.00,0.0014
3622.00,0.0013
3621.00,0.0013
3620.00,0.0013
3619.00,0.0013
3618.00,0.0015
3617.00,0.0016
3616.00,0.0017
3615.00,0.0018
3614.00,0.0018
3613.00,0.0019
3612.00,0.0019
3611.00,0.0020
3610.00,0.0021
3609.00,0.0020
3608.00,0.0018
3607.00,0.0017
3606.00,0.0017
3605.00,0.0017
3604.00,0.0016
3603.00,0.0016
3602.00,0.0015
3601.00,0.0014
3600.00,0.0014
3599.00,0.0015
3598.00,0.0015
3597.00,0.0016
3596.00,0.0016
3595.00,0.0016
3594.00,0.0016
3593.00,0.0017
3592.00,0.0017
3591.00,0.0019
3590.00,0.0019
3589.00,0.0019
3588.00,0.0018
3587.00,0.0017
3586.00,0.0017
3585.00,0.0017
3584.00,0.0017
3583.00,0.0017
3582.00,0.0016
3581.00,0.0015
3580.00,0.0015
3579.00,0.0014
3578.00,0.0014
3577.00,0.0014
3576.00,0.0014
3575.00,0.0014
3574.00,0.0013
3573.00,0.0014
3572.00,0.0014
3571.00,0.0016
3570.00,0.0017
3569.00,0.0018
3568.00,0.0018
3567.00,0.0018
3566.00,0.0018
3565.00,0.0018
3564.00,0.0018
3563.00,0.0017
3562.00,0.0017
3561.00,0.0016
3560.00,0.0015
3559.00,0.0015
3558.00,0.0014
3557.00,0.0014
3556.00,0.0014
3555.00,0.0014
3554.00,0.0014
3553.00,0.0014
3552.00,0.0014
3551.00,0.0015
3550.00,0.0016
3549.00,0.0018
3548.00,0.0018
3547.00,0.0018
3546.00,0.0018
3545.00,0.0018
3544.00,0.0017
3543.00,0.0017
3542.00,0.0017
3541.00,0.0016
3540.00,0.0016
3539.00,0.0015
3538.00,0.0015
3537.00,0.0015
3536.00,0.0015
3535.00,0.0015
3534.00,0.0016
3533.00,0.0016
3532.00,0.0015
3531.00,0.0015
3530.00,0.0015
3529.00,0.0016
3528.00,0.0016
3527.00,0.0017
3526.00,0.0018
3525.00,0.0018
3524.00,0.0018
3523.00,0.0018
3522.00,0.0017
3521.00,0.0017
3520.00,0.0017
3519.00,0.0016
3518.00,0.0016
3517.00,0.0016
3516.00,0.0016
3515.00,0.0016
3514.00,0.0016
3513.00,0.0016
3512.00,0.0017
3511.00,0.0017
3510.00,0.0018
3509.00,0.0018
3508.00,0.0018
3507.00,0.0018
3506.00,0.0018
3505.00,0.0018
3504.00,0.0018
3503.00,0.0018
3502.00,0.0018
3501.00,0.0018
3500.00,0.0017
3499.00,0.0017
3498.00,0.0017
3497.00,0.0017
3496.00,0.0017
3495.00,0.0017
3494.00,0.0017
3493.00,0.0017
3492.00,0.0016
3491.00,0.0016
3490.00,0.0016
3489.00,0.0016
3488.00,0.0017
3487.00,0.0017
3486.00,0.0017
3485.00,0.0017
3484.00,0.0017
3483.00,0.0017
3482.00,0.0017
3481.00,0.0017
3480.00,0.0017
3479.00,0.0017
3478.00,0.0017
3477.00,0.0017
3476.00,0.0017
3475.00,0.0017
3474.00,0.0017
3473.00,0.0017
3472.00,0.0017
3471.00,0.0017
3470.00,0.0017
3469.00,0.0017
3468.00,0.0016
3467.00,0.0016
3466.00,0.0016
3465.00,0.0016
3464.00,0.0017
3463.00,0.0017
3462.00,0.0017
3461.00,0.0018
3460.00,0.0018
3459.00,0.0018
3458.00,0.0018
3457.00,0.0017
3456.00,0.0017
3455.00,0.0018
3454.00,0.0018
3453.00,0.0018
3452.00,0.0018
3451.00,0.0017
3450.00,0.0017
3449.00,0.0017
3448.00,0.0017
3447.00,0.0017
3446.00,0.0018
3445.00,0.0018
3444.00,0.0018
3443.00,0.0018
3442.00,0.0018
3441.00,0.0017
3440.00,0.0017
3439.00,0.0017
3438.00,0.0018
3437.00,0.0018
3436.00,0.0018
3435.00,0.0018
3434.00,0.0018
3433.00,0.0018
3432.00,0.0018
3431.00,0.0018
3430.00,0.0018
3429.00,0.0018
3428.00,0.0018
3427.00,0.0018
3426.00,0.0018
3425.00,0.0018
3424.00,0.0017
3423.00,0.0017
3422.00,0.0017
3421.00,0.0017
3420.00,0.0017
3419.00,0.0017
3418.00,0.0017
3417.00,0.0017
3416.00,0.0018
3415.00,0.0018
3414.00,0.0019
3413.00,0.0019
3412.00,0.0018
3411.00,0.0018
3410.00,0.0017
3409.00,0.0017
3408.00,0.0017
3407.00,0.0017
3406.00,0.0017
3405.00,0.0017
3404.00,0.0018
3403.00,0.0018
3402.00,0.0018
3401.00,0.0018
3400.00,0.0018
3399.00,0.0018
3398.00,0.0018
3397.00,0.0019
3396.00,0.0019
3395.00,0.0019
3394.00,0.0020
3393.00,0.0020
3392.00,0.0020
3391.00,0.0020
3390.00,0.0019
3389.00,0.0019
3388.00,0.0019
3387.00,0.0018
3386.00,0.0018
3385.00,0.0018
3384.00,0.0018
3383.00,0.0019
3382.00,0.0019
3381.00,0.0019
3380.00,0.0019
3379.00,0.0019
3378.00,0.0019
3377.00,0.0019
3376.00,0.0019
3375.00,0.0019
3374.00,0.0019
3373.00,0.0019
3372.00,0.0019
3371.00,0.0019
3370.00,0.0019
3369.00,0.0019
3368.00,0.0020
3367.00,0.0020
3366.00,0.0020
3365.00,0.0020
3364.00,0.0020
3363.00,0.0019
3362.00,0.0019
3361.00,0.0018
3360.00,0.0018
3359.00,0.0018
3358.00,0.0018
3357.00,0.0018
3356.00,0.0018
3355.00,0.0018
3354.00,0.0019
3353.00,0.0019
3352.00,0.0020
3351.00,0.0020
3350.00,0.0020
3349.00,0.0020
3348.00,0.0019
3347.00,0.0019
3346.00,0.0018
3345.00,0.0018
3344.00,0.0018
3343.00,0.0018
3342.00,0.0018
3341.00,0.0018
3340.00,0.0018
3339.00,0.0018
3338.00,0.0018
3337.00,0.0018
3336.00,0.0018
3335.00,0.0018
3334.00,0.0018
3333.00,0.0018
3332.00,0.0018
3331.00,0.0018
3330.00,0.0019
3329.00,0.0019
3328.00,0.0019
3327.00,0.0019
3326.00,0.0019
3325.00,0.0019
3324.00,0.0019
3323.00,0.0019
3322.00,0.0019
3321.00,0.0019
3320.00,0.0019
3319.00,0.0019
3318.00,0.0019
3317.00,0.0019
3316.00,0.0019
3315.00,0.0019
3314.00,0.0020
3313.00,0.0020
3312.00,0.0020
3311.00,0.0019
3310.00,0.0019
3309.00,0.0019
3308.00,0.0019
3307.00,0.0019
3306.00,0.0020
3305.00,0.0020
3304.00,0.0020
3303.00,0.0020
3302.00,0.0019
3301.00,0.0019
3300.00,0.0019
3299.00,0.0020
3298.00,0.0020
3297.00,0.0020
3296.00,0.0021
3295.00,0.0021
3294.00,0.0021
3293.00,0.0021
3292.00,0.0020
3291.00,0.0020
3290.00,0.0020
3289.00,0.0020
3288.00,0.0020
3287.00,0.0020
3286.00,0.0020
3285.00,0.0020
3284.00,0.0019
3283.00,0.0019
3282.00,0.0019
3281.00,0.0019
3280.00,0.0019
3279.00,0.0019
3278.00,0.0019
3277.00,0.0019
3276.00,0.0019
3275.00,0.0019
3274.00,0.0020
3273.00,0.0020
3272.00,0.0019
3271.00,0.0019
3270.00,0.0019
3269.00,0.0019
3268.00,0.0018
3267.00,0.0018
3266.00,0.0018
3265.00,0.0019
3264.00,0.0019
3263.00,0.0019
3262.00,0.0019
3261.00,0.0018
3260.00,0.0018
3259.00,0.0018
3258.00,0.0018
3257.00,0.0018
3256.00,0.0018
3255.00,0.0018
3254.00,0.0018
3253.00,0.0018
3252.00,0.0018
3251.00,0.0018
3250.00,0.0018
3249.00,0.0018
3248.00,0.0018
3247.00,0.0018
3246.00,0.0018
3245.00,0.0017
3244.00,0.0017
3243.00,0.0017
3242.00,0.0017
3241.00,0.0018
3240.00,0.0018
3239.00,0.0018
3238.00,0.0018
3237.00,0.0018
3236.00,0.0018
3235.00,0.0018
3234.00,0.0017
3233.00,0.0017
3232.00,0.0017
3231.00,0.0017
3230.00,0.0017
3229.00,0.0016
3228.00,0.0016
3227.00,0.0016
3226.00,0.0016
3225.00,0.0016
3224.00,0.0016
3223.00,0.0016
3222.00,0.0016
3221.00,0.0016
3220.00,0.0016
3219.00,0.0016
3218.00,0.0016
3217.00,0.0016
3216.00,0.0016
3215.00,0.0016
3214.00,0.0017
3213.00,0.0017
3212.00,0.0017
3211.00,0.0017
3210.00,0.0017
3209.00,0.0017
3208.00,0.0017
3207.00,0.0016
3206.00,0.0016
3205.00,0.0016
3204.00,0.0016
3203.00,0.0015
3202.00,0.0015
3201.00,0.0015
3200.00,0.0015
3199.00,0.0015
3198.00,0.0015
3197.00,0.0015
3196.00,0.0015
3195.00,0.0015
3194.00,0.0015
3193.00,0.0015
3192.00,0.0015
3191.00,0.0015
3190.00,0.0016
3189.00,0.0016
3188.00,0.0016
3187.00,0.0016
3186.00,0.0016
3185.00,0.0016
3184.00,0.0016
3183.00,0.0016
3182.00,0.0016
3181.00,0.0016
3180.00,0.0016
3179.00,0.0016
3178.00,0.0016
3177.00,0.0016
3176.00,0.0015
3175.00,0.0015
3174.00,0.0015
3173.00,0.0015
3172.00,0.0016
3171.00,0.0016
3170.00,0.0016
3169.00,0.0016
3168.00,0.0016
3167.00,0.0016
3166.00,0.0016
3165.00,0.0016
3164.00,0.0017
3163.00,0.0017
3162.00,0.0017
3161.00,0.0017
3160.00,0.0017
3159.00,0.0016
3158.00,0.0017
3157.00,0.0017
3156.00,0.0017
3155.00,0.0017
3154.00,0.0017
3153.00,0.0017
3152.00,0.0017
3151.00,0.0016
3150.00,0.0016
3149.00,0.0016
3148.00,0.0016
3147.00,0.0016
3146.00,0.0015
3145.00,0.0015
3144.00,0.0016
3143.00,0.0016
3142.00,0.0017
3141.00,0.0017
3140.00,0.0017
3139.00,0.0017
3138.00,0.0016
3137.00,0.0016
3136.00,0.0015
3135.00,0.0015
3134.00,0.0015
3133.00,0.0015
3132.00,0.0015
3131.00,0.0016
3130.00,0.0016
3129.00,0.0016
3128.00,0.0016
3127.00,0.0016
3126.00,0.0016
3125.00,0.0016
3124.00,0.0017
3123.00,0.0017
3122.00,0.0017
3121.00,0.0018
3120.00,0.0018
3119.00,0.0019
3118.00,0.0019
3117.00,0.0019
3116.00,0.0019
3115.00,0.0020
3114.00,0.0020
3113.00,0.0021
3112.00,0.0022
3111.00,0.0023
3110.00,0.0025
3109.00,0.0026
3108.00,0.0028
3107.00,0.0029
3106.00,0.0030
3105.00,0.0031
3104.00,0.0032
3103.00,0.0033
3102.00,0.0033
3101.00,0.0033
3100.00,0.0033
3099.00,0.0032
3098.00,0.0032
3097.00,0.0031
3096.00,0.0031
3095.00,0.0032
3094.00,0.0032
3093.00,0.0034
3092.00,0.0036
3091.00,0.0039
3090.00,0.0042
3089.00,0.0046
3088.00,0.0051
3087.00,0.0056
3086.00,0.0061
3085.00,0.0065
3084.00,0.0070
3083.00,0.0072
3082.00,0.0073
3081.00,0.0073
3080.00,0.0071
3079.00,0.0068
3078.00,0.0065
3077.00,0.0061
3076.00,0.0058
3075.00,0.0056
3074.00,0.0054
3073.00,0.0054
3072.00,0.0055
3071.00,0.0056
3070.00,0.0058
3069.00,0.0061
3068.00,0.0064
3067.00,0.0069
3066.00,0.0073
3065.00,0.0079
3064.00,0.0084
3063.00,0.0089
3062.00,0.0093
3061.00,0.0096
3060.00,0.0098
3059.00,0.0098
3058.00,0.0096
3057.00,0.0093
3056.00,0.0088
3055.00,0.0083
3054.00,0.0078
3053.00,0.0073
3052.00,0.0069
3051.00,0.0064
3050.00,0.0061
3049.00,0.0058
3048.00,0.0055
3047.00,0.0054
3046.00,0.0053
3045.00,0.0053
3044.00,0.0053
3043.00,0.0054
3042.00,0.0055
3041.00,0.0057
3040.00,0.0060
3039.00,0.0063
3038.00,0.0067
3037.00,0.0072
3036.00,0.0078
3035.00,0.0086
3034.00,0.0095
3033.00,0.0105
3032.00,0.0116
3031.00,0.0129
3030.00,0.0141
3029.00,0.0154
3028.00,0.0165
3027.00,0.0175
3026.00,0.0181
3025.00,0.0182
3024.00,0.0179
3023.00,0.0170
3022.00,0.0158
3021.00,0.0143
3020.00,0.0127
3019.00,0.0111
3018.00,0.0096
3017.00,0.0082
3016.00,0.0070
3015.00,0.0060
3014.00,0.0051
3013.00,0.0043
3012.00,0.0036
3011.00,0.0030
3010.00,0.0025
3009.00,0.0020
3008.00,0.0016
3007.00,0.0012
3006.00,0.0008
3005.00,0.0004
3004.00,0.0000
3003.00,-0.0004
3002.00,-0.0008
3001.00,-0.0013
3000.00,-0.0019
2999.00,-0.0025
2998.00,-0.0031
2997.00,-0.0038
2996.00,-0.0044
2995.00,-0.0051
2994.00,-0.0056
2993.00,-0.0061
2992.00,-0.0065
2991.00,-0.0069
2990.00,-0.0072
2989.00,-0.0076
2988.00,-0.0079
2987.00,-0.0084
2986.00,-0.0091
2985.00,-0.0103
2984.00,-0.0118
2983.00,-0.0133
2982.00,-0.0144
2981.00,-0.0148
2980.00,-0.0144
2979.00,-0.0137
2978.00,-0.0128
2977.00,-0.0120
2976.00,-0.0114
2975.00,-0.0111
2974.00,-0.0111
2973.00,-0.0112
2972.00,-0.0113
2971.00,-0.0111
2970.00,-0.0106
2969.00,-0.0099
2968.00,-0.0091
2967.00,-0.0084
2966.00,-0.0078
2965.00,-0.0073
2964.00,-0.0068
2963.00,-0.0063
2962.00,-0.0059
2961.00,-0.0054
2960.00,-0.0050
2959.00,-0.0046
2958.00,-0.0042
2957.00,-0.0037
2956.00,-0.0033
2955.00,-0.0028
2954.00,-0.0023
2953.00,-0.0018
2952.00,-0.0012
2951.00,-0.0007
2950.00,-0.0001
2949.00,0.0005
2948.00,0.0011
2947.00,0.0018
2946.00,0.0025
2945.00,0.0031
2944.00,0.0038
2943.00,0.0045
2942.00,0.0051
2941.00,0.0057
2940.00,0.0063
2939.00,0.0070
2938.00,0.0077
2937.00,0.0084
2936.00,0.0091
2935.00,0.0098
2934.00,0.0105
2933.00,0.0112
2932.00,0.0119
2931.00,0.0127
2930.00,0.0134
2929.00,0.0141
2928.00,0.0147
2927.00,0.0153
2926.00,0.0158
2925.00,0.0163
2924.00,0.0166
2923.00,0.0168
2922.00,0.0169
2921.00,0.0169
2920.00,0.0168
2919.00,0.0167
2918.00,0.0164
2917.00,0.0161
2916.00,0.0158
2915.00,0.0154
2914.00,0.0150
2913.00,0.0145
2912.00,0.0140
2911.00,0.0135
2910.00,0.0130
2909.00,0.0124
2908.00,0.0118
2907.00,0.0112
2906.00,0.0106
2905.00,0.0101
2904.00,0.0095
2903.00,0.0089
2902.00,0.0083
2901.00,0.0077
2900.00,0.0072
2899.00,0.0067
2898.00,0.0062
2897.00,0.0057
2896.00,0.0052
2895.00,0.0048
2894.00,0.0043
2893.00,0.0038
2892.00,0.0034
2891.00,0.0030
2890.00,0.0027
2889.00,0.0025
2888.00,0.0023
2887.00,0.0021
2886.00,0.0019
2885.00,0.0018
2884.00,0.0016
2883.00,0.0016
2882.00,0.0017
2881.00,0.0018
2880.00,0.0020
2879.00,0.0021
2878.00,0.0022
2877.00,0.0022
2876.00,0.0022
2875.00,0.0022
2874.00,0.0022
2873.00,0.0022
2872.00,0.0022
2871.00,0.0022
2870.00,0.0022
2869.00,0.0023
2868.00,0.0025
2867.00,0.0026
2866.00,0.0028
2865.00,0.0031
2864.00,0.0033
2863.00,0.0035
2862.00,0.0038
2861.00,0.0042
2860.00,0.0045
2859.00,0.0049
2858.00,0.0053
2857.00,0.0057
2856.00,0.0061
2855.00,0.0065
2854.00,0.0068
2853.00,0.0071
2852.00,0.0073
2851.00,0.0076
2850.00,0.0078
2849.00,0.0079
2848.00,0.0080
2847.00,0.0080
2846.00,0.0079
2845.00,0.0077
2844.00,0.0074
2843.00,0.0070
2842.00,0.0065
2841.00,0.0060
2840.00,0.0055
2839.00,0.0050
2838.00,0.0045
2837.00,0.0041
2836.00,0.0037
2835.00,0.0034
2834.00,0.0030
2833.00,0.0027
2832.00,0.0025
2831.00,0.0024
2830.00,0.0023
2829.00,0.0022
2828.00,0.0021
2827.00,0.0021
2826.00,0.0020
2825.00,0.0020
2824.00,0.0019
2823.00,0.0019
2822.00,0.0019
2821.00,0.0018
2820.00,0.0018
2819.00,0.0018
2818.00,0.0018
2817.00,0.0018
2816.00,0.0018
2815.00,0.0017
2814.00,0.0017
2813.00,0.0017
2812.00,0.0017
2811.00,0.0017
2810.00,0.0018
2809.00,0.0017
2808.00,0.0017
2807.00,0.0017
2806.00,0.0017
2805.00,0.0017
2804.00,0.0016
2803.00,0.0016
2802.00,0.0016
2801.00,0.0016
2800.00,0.0015
2799.00,0.0015
2798.00,0.0015
2797.00,0.0015
2796.00,0.0015
2795.00,0.0015
2794.00,0.0015
2793.00,0.0015
2792.00,0.0015
2791.00,0.0015
2790.00,0.0015
2789.00,0.0015
2788.00,0.0015
2787.00,0.0015
2786.00,0.0015
2785.00,0.0015
2784.00,0.0015
2783.00,0.0015
2782.00,0.0015
2781.00,0.0015
2780.00,0.0015
2779.00,0.0015
2778.00,0.0015
2777.00,0.0015
2776.00,0.0015
2775.00,0.0015
2774.00,0.0015
2773.00,0.0014
2772.00,0.0014
2771.00,0.0014
2770.00,0.0014
2769.00,0.0014
2768.00,0.0014
2767.00,0.0014
2766.00,0.0014
2765.00,0.0014
2764.00,0.0014
2763.00,0.0014
2762.00,0.0014
2761.00,0.0014
2760.00,0.0014
2759.00,0.0014
2758.00,0.0014
2757.00,0.0014
2756.00,0.0014
2755.00,0.0014
2754.00,0.0014
2753.00,0.0014
2752.00,0.0014
2751.00,0.0014
2750.00,0.0014
2749.00,0.0014
2748.00,0.0014
2747.00,0.0014
2746.00,0.0014
2745.00,0.0014
2744.00,0.0015
2743.00,0.0015
2742.00,0.0014
2741.00,0.0014
2740.00,0.0015
2739.00,0.0015
2738.00,0.0015
2737.00,0.0014
2736.00,0.0014
2735.00,0.0014
2734.00,0.0014
2733.00,0.0014
2732.00,0.0014
2731.00,0.0014
2730.00,0.0015
2729.00,0.0015
2728.00,0.0015
2727.00,0.0015
2726.00,0.0015
2725.00,0.0015
2724.00,0.0015
2723.00,0.0015
2722.00,0.0015
2721.00,0.0015
2720.00,0.0015
2719.00,0.0015
2718.00,0.0015
2717.00,0.0015
2716.00,0.0015
2715.00,0.0015
2714.00,0.0015
2713.00,0.0015
2712.00,0.0015
2711.00,0.0015
2710.00,0.0015
2709.00,0.0015
2708.00,0.0015
2707.00,0.0015
2706.00,0.0015
2705.00,0.0015
2704.00,0.0015
2703.00,0.0016
2702.00,0.0016
2701.00,0.0016
2700.00,0.0016
2699.00,0.0016
2698.00,0.0016
2697.00,0.0016
2696.00,0.0016
2695.00,0.0015
2694.00,0.0015
2693.00,0.0015
2692.00,0.0015
2691.00,0.0015
2690.00,0.0015
2689.00,0.0015
2688.00,0.0015
2687.00,0.0015
2686.00,0.0015
2685.00,0.0015
2684.00,0.0015
2683.00,0.0015
2682.00,0.0015
2681.00,0.0014
2680.00,0.0014
2679.00,0.0014
2678.00,0.0014
2677.00,0.0014
2676.00,0.0014
2675.00,0.0014
2674.00,0.0015
2673.00,0.0015
2672.00,0.0015
2671.00,0.0015
2670.00,0.0014
2669.00,0.0014
2668.00,0.0014
2667.00,0.0014
2666.00,0.0014
2665.00,0.0014
2664.00,0.0014
2663.00,0.0015
2662.00,0.0015
2661.00,0.0016
2660.00,0.0017
2659.00,0.0017
2658.00,0.0017
2657.00,0.0017
2656.00,0.0018
2655.00,0.0018
2654.00,0.0018
2653.00,0.0018
2652.00,0.0018
2651.00,0.0018
2650.00,0.0018
2649.00,0.0018
2648.00,0.0017
2647.00,0.0017
2646.00,0.0017
2645.00,0.0017
2644.00,0.0017
2643.00,0.0017
2642.00,0.0018
2641.00,0.0018
2640.00,0.0018
2639.00,0.0019
2638.00,0.0019
2637.00,0.0019
2636.00,0.0019
2635.00,0.0019
2634.00,0.0019
2633.00,0.0019
2632.00,0.0018
2631.00,0.0018
2630.00,0.0018
2629.00,0.0018
2628.00,0.0019
2627.00,0.0019
2626.00,0.0018
2625.00,0.0018
2624.00,0.0018
2623.00,0.0018
2622.00,0.0018
2621.00,0.0018
2620.00,0.0017
2619.00,0.0017
2618.00,0.0017
2617.00,0.0017
2616.00,0.0017
2615.00,0.0018
2614.00,0.0018
2613.00,0.0017
2612.00,0.0017
2611.00,0.0017
2610.00,0.0016
2609.00,0.0017
2608.00,0.0017
2607.00,0.0017
2606.00,0.0018
2605.00,0.0018
2604.00,0.0018
2603.00,0.0018
2602.00,0.0018
2601.00,0.0018
2600.00,0.0018
2599.00,0.0018
2598.00,0.0017
2597.00,0.0017
2596.00,0.0017
2595.00,0.0017
2594.00,0.0016
2593.00,0.0016
2592.00,0.0016
2591.00,0.0016
2590.00,0.0016
2589.00,0.0016
2588.00,0.0016
2587.00,0.0016
2586.00,0.0016
2585.00,0.0017
2584.00,0.0017
2583.00,0.0017
2582.00,0.0017
2581.00,0.0017
2580.00,0.0017
2579.00,0.0017
2578.00,0.0017
2577.00,0.0017
2576.00,0.0018
2575.00,0.0018
2574.00,0.0017
2573.00,0.0017
2572.00,0.0016
2571.00,0.0015
2570.00,0.0015
2569.00,0.0015
2568.00,0.0015
2567.00,0.0015
2566.00,0.0015
2565.00,0.0015
2564.00,0.0015
2563.00,0.0016
2562.00,0.0016
2561.00,0.0016
2560.00,0.0016
2559.00,0.0016
2558.00,0.0016
2557.00,0.0015
2556.00,0.0015
2555.00,0.0015
2554.00,0.0015
2553.00,0.0015
2552.00,0.0015
2551.00,0.0015
2550.00,0.0015
2549.00,0.0015
2548.00,0.0015
2547.00,0.0016
2546.00,0.0016
2545.00,0.0015
2544.00,0.0015
2543.00,0.0014
2542.00,0.0014
2541.00,0.0014
2540.00,0.0014
2539.00,0.0014
2538.00,0.0014
2537.00,0.0014
2536.00,0.0014
2535.00,0.0015
2534.00,0.0015
2533.00,0.0014
2532.00,0.0014
2531.00,0.0013
2530.00,0.0013
2529.00,0.0013
2528.00,0.0013
2527.00,0.0013
2526.00,0.0013
2525.00,0.0013
2524.00,0.0013
2523.00,0.0013
2522.00,0.0014
2521.00,0.0014
2520.00,0.0013
2519.00,0.0013
2518.00,0.0013
2517.00,0.0013
2516.00,0.0013
2515.00,0.0013
2514.00,0.0013
2513.00,0.0013
2512.00,0.0013
2511.00,0.0013
2510.00,0.0013
2509.00,0.0013
2508.00,0.0013
2507.00,0.0013
2506.00,0.0013
2505.00,0.0014
2504.00,0.0014
2503.00,0.0014
2502.00,0.0014
2501.00,0.0013
2500.00,0.0013
2499.00,0.0013
2498.00,0.0013
2497.00,0.0014
2496.00,0.0013
2495.00,0.0013
2494.00,0.0012
2493.00,0.0012
2492.00,0.0012
2491.00,0.0012
2490.00,0.0012
2489.00,0.0012
2488.00,0.0012
2487.00,0.0012
2486.00,0.0012
2485.00,0.0012
2484.00,0.0013
2483.00,0.0013
2482.00,0.0013
2481.00,0.0013
2480.00,0.0013
2479.00,0.0013
2478.00,0.0012
2477.00,0.0012
2476.00,0.0012
2475.00,0.0012
2474.00,0.0012
2473.00,0.0012
2472.00,0.0013
2471.00,0.0013
2470.00,0.0013
2469.00,0.0013
2468.00,0.0014
2467.00,0.0013
2466.00,0.0013
2465.00,0.0013
2464.00,0.0013
2463.00,0.0012
2462.00,0.0013
2461.00,0.0013
2460.00,0.0013
2459.00,0.0014
2458.00,0.0014
2457.00,0.0014
2456.00,0.0013
2455.00,0.0013
2454.00,0.0013
2453.00,0.0013
2452.00,0.0013
2451.00,0.0013
2450.00,0.0013
2449.00,0.0013
2448.00,0.0012
2447.00,0.0011
2446.00,0.0011
2445.00,0.0011
2444.00,0.0011
2443.00,0.0011
2442.00,0.0012
2441.00,0.0012
2440.00,0.0012
2439.00,0.0012
2438.00,0.0011
2437.00,0.0012
2436.00,0.0012
2435.00,0.0012
2434.00,0.0012
2433.00,0.0012
2432.00,0.0011
2431.00,0.0011
2430.00,0.0011
2429.00,0.0011
2428.00,0.0011
2427.00,0.0011
2426.00,0.0011
2425.00,0.0011
2424.00,0.0011
2423.00,0.0011
2422.00,0.0011
2421.00,0.0011
2420.00,0.0010
2419.00,0.0010
2418.00,0.0010
2417.00,0.0011
2416.00,0.0011
2415.00,0.0012
2414.00,0.0012
2413.00,0.0011
2412.00,0.0011
2411.00,0.0011
2410.00,0.0011
2409.00,0.0011
2408.00,0.0011
2407.00,0.0010
2406.00,0.0010
2405.00,0.0009
2404.00,0.0009
2403.00,0.0009
2402.00,0.0010
2401.00,0.0010
2400.00,0.0011
2399.00,0.0011
2398.00,0.0012
2397.00,0.0011
2396.00,0.0011
2395.00,0.0011
2394.00,0.0011
2393.00,0.0011
2392.00,0.0011
2391.00,0.0011
2390.00,0.0011
2389.00,0.0010
2388.00,0.0010
2387.00,0.0010
2386.00,0.0010
2385.00,0.0010
2384.00,0.0010
2383.00,0.0010
2382.00,0.0010
2381.00,0.0009
2380.00,0.0009
2379.00,0.0009
2378.00,0.0009
2377.00,0.0010
2376.00,0.0010
2375.00,0.0010
2374.00,0.0010
2373.00,0.0010
2372.00,0.0010
2371.00,0.0009
2370.00,0.0008
2369.00,0.0007
2368.00,0.0007
2367.00,0.0008
2366.00,0.0009
2365.00,0.0010
2364.00,0.0011
2363.00,0.0011
2362.00,0.0011
2361.00,0.0011
2360.00,0.0011
2359.00,0.0011
2358.00,0.0012
2357.00,0.0012
2356.00,0.0012
2355.00,0.0011
2354.00,0.0012
2353.00,0.0012
2352.00,0.0012
2351.00,0.0012
2350.00,0.0013
2349.00,0.0013
2348.00,0.0013
2347.00,0.0014
2346.00,0.0014
2345.00,0.0014
2344.00,0.0015
2343.00,0.0015
2342.00,0.0016
2341.00,0.0016
2340.00,0.0015
2339.00,0.0015
2338.00,0.0016
2337.00,0.0016
2336.00,0.0016
2335.00,0.0015
2334.00,0.0014
2333.00,0.0014
2332.00,0.0014
2331.00,0.0014
2330.00,0.0015
2329.00,0.0016
2328.00,0.0018
2327.00,0.0021
2326.00,0.0023
2325.00,0.0024
2324.00,0.0023
2323.00,0.0021
2322.00,0.0019
2321.00,0.0019
2320.00,0.0018
2319.00,0.0019
2318.00,0.0019
2317.00,0.0020
2316.00,0.0020
2315.00,0.0020
2314.00,0.0019
2313.00,0.0019
2312.00,0.0018
2311.00,0.0018
2310.00,0.0019
2309.00,0.0019
2308.00,0.0018
2307.00,0.0018
2306.00,0.0018
2305.00,0.0017
2304.00,0.0017
2303.00,0.0017
2302.00,0.0018
2301.00,0.0018
2300.00,0.0018
2299.00,0.0018
2298.00,0.0018
2297.00,0.0019
2296.00,0.0019
2295.00,0.0020
2294.00,0.0021
2293.00,0.0021
2292.00,0.0022
2291.00,0.0022
2290.00,0.0022
2289.00,0.0022
2288.00,0.0022
2287.00,0.0022
2286.00,0.0022
2285.00,0.0022
2284.00,0.0021
2283.00,0.0020
2282.00,0.0019
2281.00,0.0019
2280.00,0.0018
2279.00,0.0017
2278.00,0.0017
2277.00,0.0017
2276.00,0.0018
2275.00,0.0018
2274.00,0.0019
2273.00,0.0018
2272.00,0.0018
2271.00,0.0017
2270.00,0.0016
2269.00,0.0016
2268.00,0.0017
2267.00,0.0017
2266.00,0.0017
2265.00,0.0017
2264.00,0.0017
2263.00,0.0017
2262.00,0.0018
2261.00,0.0018
2260.00,0.0018
2259.00,0.0018
2258.00,0.0016
2257.00,0.0015
2256.00,0.0013
2255.00,0.0012
2254.00,0.0012
2253.00,0.0012
2252.00,0.0012
2251.00,0.0013
2250.00,0.0014
2249.00,0.0015
2248.00,0.0015
2247.00,0.0015
2246.00,0.0015
2245.00,0.0014
2244.00,0.0012
2243.00,0.0011
2242.00,0.0011
2241.00,0.0011
2240.00,0.0012
2239.00,0.0013
2238.00,0.0014
2237.00,0.0014
2236.00,0.0014
2235.00,0.0014
2234.00,0.0015
2233.00,0.0016
2232.00,0.0016
2231.00,0.0015
2230.00,0.0014
2229.00,0.0013
2228.00,0.0012
2227.00,0.0012
2226.00,0.0012
2225.00,0.0012
2224.00,0.0012
2223.00,0.0013
2222.00,0.0013
2221.00,0.0014
2220.00,0.0014
2219.00,0.0013
2218.00,0.0013
2217.00,0.0012
2216.00,0.0013
2215.00,0.0013
2214.00,0.0014
2213.00,0.0013
2212.00,0.0011
2211.00,0.0011
2210.00,0.0011
2209.00,0.0012
2208.00,0.0013
2207.00,0.0012
2206.00,0.0011
2205.00,0.0008
2204.00,0.0007
2203.00,0.0008
2202.00,0.0010
2201.00,0.0013
2200.00,0.0014
2199.00,0.0015
2198.00,0.0015
2197.00,0.0016
2196.00,0.0015
2195.00,0.0014
2194.00,0.0013
2193.00,0.0012
2192.00,0.0012
2191.00,0.0013
2190.00,0.0013
2189.00,0.0013
2188.00,0.0012
2187.00,0.0012
2186.00,0.0013
2185.00,0.0014
2184.00,0.0012
2183.00,0.0009
2182.00,0.0007
2181.00,0.0007
2180.00,0.0008
2179.00,0.0009
2178.00,0.0009
2177.00,0.0008
2176.00,0.0006
2175.00,0.0006
2174.00,0.0006
2173.00,0.0008
2172.00,0.0010
2171.00,0.0013
2170.00,0.0017
2169.00,0.0019
2168.00,0.0019
2167.00,0.0018
2166.00,0.0018
2165.00,0.0019
2164.00,0.0019
2163.00,0.0018
2162.00,0.0013
2161.00,0.0005
2160.00,-0.0005
2159.00,-0.0012
2158.00,-0.0014
2157.00,-0.0012
2156.00,-0.0010
2155.00,-0.0009
2154.00,-0.0008
2153.00,-0.0006
2152.00,-0.0004
2151.00,-0.0002
2150.00,0.0000
2149.00,0.0000
2148.00,-0.0001
2147.00,-0.0003
2146.00,-0.0005
2145.00,-0.0005
2144.00,-0.0004
2143.00,-0.0003
2142.00,-0.0001
2141.00,-0.0000
2140.00,0.0000
2139.00,0.0001
2138.00,0.0000
2137.00,-0.0001
2136.00,-0.0004
2135.00,-0.0006
2134.00,-0.0006
2133.00,-0.0006
2132.00,-0.0005
2131.00,-0.0004
2130.00,-0.0002
2129.00,-0.0001
2128.00,0.0001
2127.00,0.0002
2126.00,0.0003
2125.00,0.0003
2124.00,0.0004
2123.00,0.0005
2122.00,0.0005
2121.00,0.0006
2120.00,0.0007
2119.00,0.0007
2118.00,0.0007
2117.00,0.0007
2116.00,0.0008
2115.00,0.0010
2114.00,0.0010
2113.00,0.0010
2112.00,0.0010
2111.00,0.0009
2110.00,0.0008
2109.00,0.0007
2108.00,0.0007
2107.00,0.0007
2106.00,0.0007
2105.00,0.0007
2104.00,0.0008
2103.00,0.0008
2102.00,0.0008
2101.00,0.0008
2100.00,0.0008
2099.00,0.0007
2098.00,0.0006
2097.00,0.0005
2096.00,0.0004
2095.00,0.0003
2094.00,0.0003
2093.00,0.0004
2092.00,0.0005
2091.00,0.0006
2090.00,0.0008
2089.00,0.0008
2088.00,0.0009
2087.00,0.0009
2086.00,0.0009
2085.00,0.0010
2084.00,0.0010
2083.00,0.0010
2082.00,0.0010
2081.00,0.0009
2080.00,0.0009
2079.00,0.0010
2078.00,0.0010
2077.00,0.0011
2076.00,0.0010
2075.00,0.0010
2074.00,0.0010
2073.00,0.0011
2072.00,0.0011
2071.00,0.0011
2070.00,0.0011
2069.00,0.0009
2068.00,0.0008
2067.00,0.0006
2066.00,0.0006
2065.00,0.0005
2064.00,0.0005
2063.00,0.0006
2062.00,0.0008
2061.00,0.0009
2060.00,0.0010
2059.00,0.0010
2058.00,0.0011
2057.00,0.0011
2056.00,0.0010
2055.00,0.0010
2054.00,0.0011
2053.00,0.0014
2052.00,0.0016
2051.00,0.0016
2050.00,0.0014
2049.00,0.0011
2048.00,0.0008
2047.00,0.0007
2046.00,0.0007
2045.00,0.0008
2044.00,0.0009
2043.00,0.0009
2042.00,0.0008
2041.00,0.0007
2040.00,0.0007
2039.00,0.0008
2038.00,0.0010
2037.00,0.0010
2036.00,0.0008
2035.00,0.0006
2034.00,0.0004
2033.00,0.0003
2032.00,0.0003
2031.00,0.0004
2030.00,0.0004
2029.00,0.0005
2028.00,0.0005
2027.00,0.0005
2026.00,0.0006
2025.00,0.0007
2024.00,0.0007
2023.00,0.0005
2022.00,0.0003
2021.00,0.0001
2020.00,-0.0000
2019.00,-0.0000
2018.00,0.0001
2017.00,0.0002
2016.00,0.0003
2015.00,0.0005
2014.00,0.0006
2013.00,0.0006
2012.00,0.0006
2011.00,0.0005
2010.00,0.0004
2009.00,0.0003
2008.00,0.0002
2007.00,0.0002
2006.00,0.0002
2005.00,0.0003
2004.00,0.0004
2003.00,0.0005
2002.00,0.0006
2001.00,0.0006
2000.00,0.0006
1999.00,0.0005
1998.00,0.0003
1997.00,0.0003
1996.00,0.0003
1995.00,0.0004
1994.00,0.0006
1993.00,0.0008
1992.00,0.0012
1991.00,0.0015
1990.00,0.0017
1989.00,0.0018
1988.00,0.0017
1987.00,0.0016
1986.00,0.0015
1985.00,0.0014
1984.00,0.0015
1983.00,0.0017
1982.00,0.0020
1981.00,0.0021
1980.00,0.0020
1979.00,0.0016
1978.00,0.0012
1977.00,0.0008
1976.00,0.0005
1975.00,0.0003
1974.00,0.0003
1973.00,0.0003
1972.00,0.0004
1971.00,0.0006
1970.00,0.0009
1969.00,0.0012
1968.00,0.0014
1967.00,0.0015
1966.00,0.0016
1965.00,0.0015
1964.00,0.0013
1963.00,0.0013
1962.00,0.0013
1961.00,0.0013
1960.00,0.0013
1959.00,0.0014
1958.00,0.0015
1957.00,0.0017
1956.00,0.0019
1955.00,0.0019
1954.00,0.0019
1953.00,0.0018
1952.00,0.0017
1951.00,0.0017
1950.00,0.0018
1949.00,0.0019
1948.00,0.0020
1947.00,0.0022
1946.00,0.0024
1945.00,0.0027
1944.00,0.0029
1943.00,0.0030
1942.00,0.0030
1941.00,0.0029
1940.00,0.0028
1939.00,0.0026
1938.00,0.0025
1937.00,0.0023
1936.00,0.0021
1935.00,0.0019
1934.00,0.0017
1933.00,0.0015
1932.00,0.0013
1931.00,0.0012
1930.00,0.0011
1929.00,0.0010
1928.00,0.0010
1927.00,0.0010
1926.00,0.0010
1925.00,0.0010
1924.00,0.0010
1923.00,0.0010
1922.00,0.0010
1921.00,0.0011
1920.00,0.0011
1919.00,0.0011
1918.00,0.0010
1917.00,0.0008
1916.00,0.0007
1915.00,0.0007
1914.00,0.0007
1913.00,0.0006
1912.00,0.0006
1911.00,0.0005
1910.00,0.0006
1909.00,0.0006
1908.00,0.0006
1907.00,0.0006
1906.00,0.0006
1905.00,0.0006
1904.00,0.0006
1903.00,0.0007
1902.00,0.0009
1901.00,0.0010
1900.00,0.0010
1899.00,0.0010
1898.00,0.0010
1897.00,0.0010
1896.00,0.0011
1895.00,0.0012
1894.00,0.0013
1893.00,0.0014
1892.00,0.0015
1891.00,0.0016
1890.00,0.0017
1889.00,0.0017
1888.00,0.0018
1887.00,0.0019
1886.00,0.0020
1885.00,0.0021
1884.00,0.0021
1883.00,0.0022
1882.00,0.0023
1881.00,0.0023
1880.00,0.0024
1879.00,0.0024
1878.00,0.0024
1877.00,0.0025
1876.00,0.0026
1875.00,0.0026
1874.00,0.0027
1873.00,0.0028
1872.00,0.0028
1871.00,0.0028
1870.00,0.0027
1869.00,0.0026
1868.00,0.0025
1867.00,0.0025
1866.00,0.0025
1865.00,0.0025
1864.00,0.0024
1863.00,0.0024
1862.00,0.0023
1861.00,0.0021
1860.00,0.0020
1859.00,0.0018
1858.00,0.0016
1857.00,0.0015
1856.00,0.0013
1855.00,0.0012
1854.00,0.0012
1853.00,0.0012
1852.00,0.0012
1851.00,0.0012
1850.00,0.0013
1849.00,0.0012
1848.00,0.0012
1847.00,0.0011
1846.00,0.0012
1845.00,0.0012
1844.00,0.0013
1843.00,0.0012
1842.00,0.0012
1841.00,0.0012
1840.00,0.0012
1839.00,0.0011
1838.00,0.0011
1837.00,0.0010
1836.00,0.0010
1835.00,0.0010
1834.00,0.0010
1833.00,0.0010
1832.00,0.0010
1831.00,0.0010
1830.00,0.0010
1829.00,0.0011
1828.00,0.0013
1827.00,0.0014
1826.00,0.0015
1825.00,0.0016
1824.00,0.0016
1823.00,0.0017
1822.00,0.0017
1821.00,0.0018
1820.00,0.0018
1819.00,0.0018
1818.00,0.0018
1817.00,0.0019
1816.00,0.0020
1815.00,0.0021
1814.00,0.0022
1813.00,0.0023
1812.00,0.0024
1811.00,0.0025
1810.00,0.0026
1809.00,0.0027
1808.00,0.0028
1807.00,0.0028
1806.00,0.0029
1805.00,0.0030
1804.00,0.0030
1803.00,0.0031
1802.00,0.0032
1801.00,0.0033
1800.00,0.0032
1799.00,0.0032
1798.00,0.0032
1797.00,0.0032
1796.00,0.0031
1795.00,0.0029
1794.00,0.0029
1793.00,0.0027
1792.00,0.0025
1791.00,0.0023
1790.00,0.0022
1789.00,0.0021
1788.00,0.0020
1787.00,0.0019
1786.00,0.0019
1785.00,0.0018
1784.00,0.0017
1783.00,0.0017
1782.00,0.0016
1781.00,0.0016
1780.00,0.0017
1779.00,0.0017
1778.00,0.0017
1777.00,0.0017
1776.00,0.0017
1775.00,0.0017
1774.00,0.0017
1773.00,0.0017
1772.00,0.0017
1771.00,0.0018
1770.00,0.0019
1769.00,0.0020
1768.00,0.0020
1767.00,0.0019
1766.00,0.0019
1765.00,0.0018
1764.00,0.0018
1763.00,0.0018
1762.00,0.0018
1761.00,0.0020
1760.00,0.0021
1759.00,0.0022
1758.00,0.0023
1757.00,0.0024
1756.00,0.0026
1755.00,0.0027
1754.00,0.0029
1753.00,0.0032
1752.00,0.0035
1751.00,0.0037
1750.00,0.0038
1749.00,0.0038
1748.00,0.0038
1747.00,0.0038
1746.00,0.0038
1745.00,0.0038
1744.00,0.0039
1743.00,0.0038
1742.00,0.0038
1741.00,0.0039
1740.00,0.0039
1739.00,0.0039
1738.00,0.0039
1737.00,0.0039
1736.00,0.0041
1735.00,0.0042
1734.00,0.0041
1733.00,0.0041
1732.00,0.0039
1731.00,0.0037
1730.00,0.0035
1729.00,0.0034
1728.00,0.0033
1727.00,0.0032
1726.00,0.0031
1725.00,0.0031
1724.00,0.0030
1723.00,0.0029
1722.00,0.0029
1721.00,0.0029
1720.00,0.0028
1719.00,0.0028
1718.00,0.0029
1717.00,0.0029
1716.00,0.0029
1715.00,0.0029
1714.00,0.0029
1713.00,0.0028
1712.00,0.0027
1711.00,0.0026
1710.00,0.0026
1709.00,0.0026
1708.00,0.0025
1707.00,0.0025
1706.00,0.0024
1705.00,0.0023
1704.00,0.0024
1703.00,0.0025
1702.00,0.0028
1701.00,0.0031
1700.00,0.0031
1699.00,0.0031
1698.00,0.0031
1697.00,0.0031
1696.00,0.0029
1695.00,0.0028
1694.00,0.0029
1693.00,0.0029
1692.00,0.0029
1691.00,0.0029
1690.00,0.0030
1689.00,0.0030
1688.00,0.0031
1687.00,0.0031
1686.00,0.0032
1685.00,0.0032
1684.00,0.0031
1683.00,0.0033
1682.00,0.0034
1681.00,0.0034
1680.00,0.0034
1679.00,0.0035
1678.00,0.0035
1677.00,0.0036
1676.00,0.0037
1675.00,0.0037
1674.00,0.0038
1673.00,0.0038
1672.00,0.0039
1671.00,0.0039
1670.00,0.0039
1669.00,0.0038
1668.00,0.0038
1667.00,0.0038
1666.00,0.0038
1665.00,0.0038
1664.00,0.0039
1663.00,0.0039
1662.00,0.0039
1661.00,0.0039
1660.00,0.0039
1659.00,0.0039
1658.00,0.0039
1657.00,0.0038
1656.00,0.0038
1655.00,0.0038
1654.00,0.0037
1653.00,0.0035
1652.00,0.0037
1651.00,0.0037
1650.00,0.0037
1649.00,0.0037
1648.00,0.0037
1647.00,0.0037
1646.00,0.0038
1645.00,0.0038
1644.00,0.0038
1643.00,0.0037
1642.00,0.0037
1641.00,0.0036
1640.00,0.0036
1639.00,0.0036
1638.00,0.0037
1637.00,0.0037
1636.00,0.0036
1635.00,0.0036
1634.00,0.0036
1633.00,0.0035
1632.00,0.0035
1631.00,0.0035
1630.00,0.0035
1629.00,0.0035
1628.00,0.0034
1627.00,0.0034
1626.00,0.0035
1625.00,0.0035
1624.00,0.0035
1623.00,0.0036
1622.00,0.0036
1621.00,0.0036
1620.00,0.0036
1619.00,0.0037
1618.00,0.0037
1617.00,0.0038
1616.00,0.0039
1615.00,0.0042
1614.00,0.0044
1613.00,0.0046
1612.00,0.0050
1611.00,0.0055
1610.00,0.0062
1609.00,0.0071
1608.00,0.0083
1607.00,0.0099
1606.00,0.0118
1605.00,0.0138
1604.00,0.0159
1603.00,0.0177
1602.00,0.0190
1601.00,0.0194
1600.00,0.0189
1599.00,0.0177
1598.00,0.0159
1597.00,0.0140
1596.00,0.0121
1595.00,0.0106
1594.00,0.0093
1593.00,0.0083
1592.00,0.0076
1591.00,0.0071
1590.00,0.0066
1589.00,0.0064
1588.00,0.0065
1587.00,0.0068
1586.00,0.0074
1585.00,0.0080
1584.00,0.0085
1583.00,0.0087
1582.00,0.0084
1581.00,0.0076
1580.00,0.0067
1579.00,0.0059
1578.00,0.0052
1577.00,0.0046
1576.00,0.0042
1575.00,0.0040
1574.00,0.0038
1573.00,0.0036
1572.00,0.0035
1571.00,0.0034
1570.00,0.0033
1569.00,0.0032
1568.00,0.0033
1567.00,0.0033
1566.00,0.0033
1565.00,0.0032
1564.00,0.0031
1563.00,0.0031
1562.00,0.0031
1561.00,0.0031
1560.00,0.0033
1559.00,0.0035
1558.00,0.0037
1557.00,0.0038
1556.00,0.0038
1555.00,0.0038
1554.00,0.0039
1553.00,0.0040
1552.00,0.0041
1551.00,0.0042
1550.00,0.0042
1549.00,0.0043
1548.00,0.0045
1547.00,0.0046
1546.00,0.0048
1545.00,0.0048
1544.00,0.0048
1543.00,0.0048
1542.00,0.0048
1541.00,0.0048
1540.00,0.0046
1539.00,0.0046
1538.00,0.0046
1537.00,0.0045
1536.00,0.0045
1535.00,0.0044
1534.00,0.0042
1533.00,0.0040
1532.00,0.0039
1531.00,0.0039
1530.00,0.0039
1529.00,0.0038
1528.00,0.0037
1527.00,0.0037
1526.00,0.0037
1525.00,0.0037
1524.00,0.0037
1523.00,0.0037
1522.00,0.0036
1521.00,0.0036
1520.00,0.0036
1519.00,0.0037
1518.00,0.0037
1517.00,0.0038
1516.00,0.0038
1515.00,0.0039
1514.00,0.0039
1513.00,0.0040
1512.00,0.0040
1511.00,0.0040
1510.00,0.0041
1509.00,0.0043
1508.00,0.0043
1507.00,0.0044
1506.00,0.0047
1505.00,0.0051
1504.00,0.0053
1503.00,0.0057
1502.00,0.0063
1501.00,0.0072
1500.00,0.0087
1499.00,0.0109
1498.00,0.0146
1497.00,0.0203
1496.00,0.0279
1495.00,0.0357
1494.00,0.0423
1493.00,0.0465
1492.00,0.0471
1491.00,0.0434
1490.00,0.0362
1489.00,0.0284
1488.00,0.0221
1487.00,0.0177
1486.00,0.0145
1485.00,0.0121
1484.00,0.0103
1483.00,0.0088
1482.00,0.0076
1481.00,0.0067
1480.00,0.0060
1479.00,0.0055
1478.00,0.0052
1477.00,0.0048
1476.00,0.0045
1475.00,0.0042
1474.00,0.0040
1473.00,0.0040
1472.00,0.0040
1471.00,0.0041
1470.00,0.0042
1469.00,0.0044
1468.00,0.0045
1467.00,0.0045
1466.00,0.0046
1465.00,0.0046
1464.00,0.0048
1463.00,0.0051
1462.00,0.0056
1461.00,0.0063
1460.00,0.0073
1459.00,0.0090
1458.00,0.0123
1457.00,0.0184
1456.00,0.0261
1455.00,0.0334
1454.00,0.0395
1453.00,0.0443
1452.00,0.0467
1451.00,0.0465
1450.00,0.0442
1449.00,0.0407
1448.00,0.0368
1447.00,0.0333
1446.00,0.0304
1445.00,0.0281
1444.00,0.0260
1443.00,0.0238
1442.00,0.0218
1441.00,0.0201
1440.00,0.0186
1439.00,0.0172
1438.00,0.0159
1437.00,0.0144
1436.00,0.0127
1435.00,0.0113
1434.00,0.0102
1433.00,0.0093
1432.00,0.0085
1431.00,0.0077
1430.00,0.0069
1429.00,0.0063
1428.00,0.0059
1427.00,0.0055
1426.00,0.0053
1425.00,0.0051
1424.00,0.0049
1423.00,0.0047
1422.00,0.0046
1421.00,0.0045
1420.00,0.0044
1419.00,0.0042
1418.00,0.0040
1417.00,0.0039
1416.00,0.0037
1415.00,0.0035
1414.00,0.0033
1413.00,0.0031
1412.00,0.0029
1411.00,0.0027
1410.00,0.0025
1409.00,0.0023
1408.00,0.0022
1407.00,0.0020
1406.00,0.0017
1405.00,0.0015
1404.00,0.0013
1403.00,0.0010
1402.00,0.0008
1401.00,0.0006
1400.00,0.0003
1399.00,0.0001
1398.00,-0.0001
1397.00,-0.0003
1396.00,-0.0005
1395.00,-0.0007
1394.00,-0.0008
1393.00,-0.0007
1392.00,-0.0005
1391.00,-0.0003
1390.00,-0.0000
1389.00,0.0002
1388.00,0.0005
1387.00,0.0008
1386.00,0.0011
1385.00,0.0013
1384.00,0.0015
1383.00,0.0017
1382.00,0.0019
1381.00,0.0022
1380.00,0.0027
1379.00,0.0032
1378.00,0.0037
1377.00,0.0043
1376.00,0.0047
1375.00,0.0051
1374.00,0.0055
1373.00,0.0057
1372.00,0.0060
1371.00,0.0063
1370.00,0.0065
1369.00,0.0067
1368.00,0.0069
1367.00,0.0070
1366.00,0.0071
1365.00,0.0072
1364.00,0.0072
1363.00,0.0072
1362.00,0.0072
1361.00,0.0072
1360.00,0.0072
1359.00,0.0071
1358.00,0.0070
1357.00,0.0069
1356.00,0.0069
1355.00,0.0069
1354.00,0.0069
1353.00,0.0070
1352.00,0.0071
1351.00,0.0072
1350.00,0.0072
1349.00,0.0072
1348.00,0.0071
1347.00,0.0071
1346.00,0.0070
1345.00,0.0069
1344.00,0.0068
1343.00,0.0068
1342.00,0.0067
1341.00,0.0066
1340.00,0.0066
1339.00,0.0065
1338.00,0.0065
1337.00,0.0065
1336.00,0.0067
1335.00,0.0068
1334.00,0.0070
1333.00,0.0073
1332.00,0.0076
1331.00,0.0078
1330.00,0.0081
1329.00,0.0082
1328.00,0.0083
1327.00,0.0083
1326.00,0.0082
1325.00,0.0081
1324.00,0.0081
1323.00,0.0080
1322.00,0.0079
1321.00,0.0079
1320.00,0.0079
1319.00,0.0079
1318.00,0.0080
1317.00,0.0082
1316.00,0.0083
1315.00,0.0085
1314.00,0.0086
1313.00,0.0086
1312.00,0.0086
1311.00,0.0086
1310.00,0.0085
1309.00,0.0084
1308.00,0.0082
1307.00,0.0081
1306.00,0.0079
1305.00,0.0078
1304.00,0.0077
1303.00,0.0075
1302.00,0.0074
1301.00,0.0073
1300.00,0.0071
1299.00,0.0070
1298.00,0.0068
1297.00,0.0068
1296.00,0.0068
1295.00,0.0067
1294.00,0.0067
1293.00,0.0067
1292.00,0.0066
1291.00,0.0065
1290.00,0.0064
1289.00,0.0063
1288.00,0.0062
1287.00,0.0061
1286.00,0.0060
1285.00,0.0060
1284.00,0.0059
1283.00,0.0059
1282.00,0.0058
1281.00,0.0057
1280.00,0.0056
1279.00,0.0055
1278.00,0.0053
1277.00,0.0051
1276.00,0.0049
1275.00,0.0047
1274.00,0.0044
1273.00,0.0041
1272.00,0.0038
1271.00,0.0036
1270.00,0.0033
1269.00,0.0031
1268.00,0.0029
1267.00,0.0027
1266.00,0.0026
1265.00,0.0024
1264.00,0.0023
1263.00,0.0022
1262.00,0.0021
1261.00,0.0021
1260.00,0.0020
1259.00,0.0019
1258.00,0.0018
1257.00,0.0017
1256.00,0.0016
1255.00,0.0015
1254.00,0.0015
1253.00,0.0014
1252.00,0.0014
1251.00,0.0014
1250.00,0.0015
1249.00,0.0017
1248.00,0.0018
1247.00,0.0020
1246.00,0.0021
1245.00,0.0022
1244.00,0.0022
1243.00,0.0023
1242.00,0.0023
1241.00,0.0023
1240.00,0.0023
1239.00,0.0023
1238.00,0.0024
1237.00,0.0024
1236.00,0.0025
1235.00,0.0027
1234.00,0.0028
1233.00,0.0029
1232.00,0.0030
1231.00,0.0031
1230.00,0.0033
1229.00,0.0035
1228.00,0.0036
1227.00,0.0038
1226.00,0.0039
1225.00,0.0040
1224.00,0.0041
1223.00,0.0042
1222.00,0.0043
1221.00,0.0044
1220.00,0.0044
1219.00,0.0045
1218.00,0.0045
1217.00,0.0046
1216.00,0.0047
1215.00,0.0049
1214.00,0.0050
1213.00,0.0051
1212.00,0.0052
1211.00,0.0053
1210.00,0.0053
1209.00,0.0054
1208.00,0.0055
1207.00,0.0057
1206.00,0.0059
1205.00,0.0061
1204.00,0.0063
1203.00,0.0065
1202.00,0.0067
1201.00,0.0068
1200.00,0.0070
1199.00,0.0071
1198.00,0.0071
1197.00,0.0072
1196.00,0.0072
1195.00,0.0072
1194.00,0.0071
1193.00,0.0071
1192.00,0.0071
1191.00,0.0070
1190.00,0.0070
1189.00,0.0070
1188.00,0.0070
1187.00,0.0072
1186.00,0.0075
1185.00,0.0078
1184.00,0.0081
1183.00,0.0084
1182.00,0.0086
1181.00,0.0085
1180.00,0.0082
1179.00,0.0075
1178.00,0.0067
1177.00,0.0058
1176.00,0.0049
1175.00,0.0042
1174.00,0.0037
1173.00,0.0032
1172.00,0.0029
1171.00,0.0026
1170.00,0.0024
1169.00,0.0022
1168.00,0.0020
1167.00,0.0018
1166.00,0.0016
1165.00,0.0015
1164.00,0.0015
1163.00,0.0016
1162.00,0.0018
1161.00,0.0021
1160.00,0.0025
1159.00,0.0031
1158.00,0.0037
1157.00,0.0044
1156.00,0.0050
1155.00,0.0052
1154.00,0.0052
1153.00,0.0047
1152.00,0.0040
1151.00,0.0032
1150.00,0.0024
1149.00,0.0017
1148.00,0.0012
1147.00,0.0009
1146.00,0.0007
1145.00,0.0005
1144.00,0.0004
1143.00,0.0003
1142.00,0.0002
1141.00,0.0002
1140.00,0.0001
1139.00,0.0001
1138.00,0.0001
1137.00,0.0002
1136.00,0.0003
1135.00,0.0003
1134.00,0.0004
1133.00,0.0005
1132.00,0.0006
1131.00,0.0007
1130.00,0.0008
1129.00,0.0010
1128.00,0.0011
1127.00,0.0012
1126.00,0.0014
1125.00,0.0016
1124.00,0.0018
1123.00,0.0020
1122.00,0.0022
1121.00,0.0024
1120.00,0.0026
1119.00,0.0029
1118.00,0.0031
1117.00,0.0034
1116.00,0.0037
1115.00,0.0040
1114.00,0.0043
1113.00,0.0045
1112.00,0.0046
1111.00,0.0046
1110.00,0.0046
1109.00,0.0045
1108.00,0.0045
1107.00,0.0045
1106.00,0.0046
1105.00,0.0046
1104.00,0.0046
1103.00,0.0045
1102.00,0.0044
1101.00,0.0044
1100.00,0.0044
1099.00,0.0044
1098.00,0.0045
1097.00,0.0045
1096.00,0.0045
1095.00,0.0045
1094.00,0.0044
1093.00,0.0043
1092.00,0.0042
1091.00,0.0042
1090.00,0.0043
1089.00,0.0043
1088.00,0.0044
1087.00,0.0046
1086.00,0.0048
1085.00,0.0050
1084.00,0.0053
1083.00,0.0056
1082.00,0.0059
1081.00,0.0062
1080.00,0.0065
1079.00,0.0068
1078.00,0.0071
1077.00,0.0075
1076.00,0.0080
1075.00,0.0085
1074.00,0.0091
1073.00,0.0097
1072.00,0.0104
1071.00,0.0109
1070.00,0.0114
1069.00,0.0116
1068.00,0.0117
1067.00,0.0116
1066.00,0.0114
1065.00,0.0111
1064.00,0.0106
1063.00,0.0101
1062.00,0.0095
1061.00,0.0091
1060.00,0.0087
1059.00,0.0084
1058.00,0.0082
1057.00,0.0080
1056.00,0.0079
1055.00,0.0078
1054.00,0.0077
1053.00,0.0076
1052.00,0.0076
1051.00,0.0075
1050.00,0.0075
1049.00,0.0074
1048.00,0.0074
1047.00,0.0075
1046.00,0.0075
1045.00,0.0076
1044.00,0.0077
1043.00,0.0078
1042.00,0.0079
1041.00,0.0080
1040.00,0.0083
1039.00,0.0088
1038.00,0.0095
1037.00,0.0105
1036.00,0.0119
1035.00,0.0136
1034.00,0.0157
1033.00,0.0181
1032.00,0.0206
1031.00,0.0229
1030.00,0.0248
1029.00,0.0261
1028.00,0.0266
1027.00,0.0263
1026.00,0.0251
1025.00,0.0235
1024.00,0.0217
1023.00,0.0200
1022.00,0.0186
1021.00,0.0174
1020.00,0.0163
1019.00,0.0154
1018.00,0.0146
1017.00,0.0139
1016.00,0.0133
1015.00,0.0127
1014.00,0.0122
1013.00,0.0118
1012.00,0.0114
1011.00,0.0111
1010.00,0.0110
1009.00,0.0110
1008.00,0.0111
1007.00,0.0112
1006.00,0.0115
1005.00,0.0117
1004.00,0.0119
1003.00,0.0119
1002.00,0.0116
1001.00,0.0111
1000.00,0.0104
999.00,0.0097
998.00,0.0092
997.00,0.0089
996.00,0.0087
995.00,0.0086
994.00,0.0085
993.00,0.0084
992.00,0.0084
991.00,0.0084
990.00,0.0085
989.00,0.0086
988.00,0.0088
987.00,0.0090
986.00,0.0092
985.00,0.0094
984.00,0.0096
983.00,0.0098
982.00,0.0098
981.00,0.0099
980.00,0.0098
979.00,0.0095
978.00,0.0091
977.00,0.0086
976.00,0.0080
975.00,0.0075
974.00,0.0070
973.00,0.0066
972.00,0.0063
971.00,0.0061
970.00,0.0061
969.00,0.0061
968.00,0.0063
967.00,0.0064
966.00,0.0066
965.00,0.0068
964.00,0.0068
963.00,0.0067
962.00,0.0064
961.00,0.0059
960.00,0.0053
959.00,0.0046
958.00,0.0039
957.00,0.0034
956.00,0.0030
955.00,0.0028
954.00,0.0027
953.00,0.0026
952.00,0.0026
951.00,0.0028
950.00,0.0030
949.00,0.0032
948.00,0.0035
947.00,0.0038
946.00,0.0039
945.00,0.0041
944.00,0.0043
943.00,0.0044
942.00,0.0045
941.00,0.0046
940.00,0.0046
939.00,0.0046
938.00,0.0046
937.00,0.0045
936.00,0.0045
935.00,0.0045
934.00,0.0045
933.00,0.0045
932.00,0.0045
931.00,0.0046
930.00,0.0047
929.00,0.0048
928.00,0.0050
927.00,0.0051
926.00,0.0053
925.00,0.0055
924.00,0.0058
923.00,0.0060
922.00,0.0064
921.00,0.0067
920.00,0.0071
919.00,0.0075
918.00,0.0081
917.00,0.0087
916.00,0.0094
915.00,0.0102
914.00,0.0112
913.00,0.0123
912.00,0.0134
911.00,0.0147
910.00,0.0159
909.00,0.0169
908.00,0.0177
907.00,0.0182
906.00,0.0183
905.00,0.0179
904.00,0.0172
903.00,0.0162
902.00,0.0149
901.00,0.0136
900.00,0.0122
899.00,0.0110
898.00,0.0099
897.00,0.0091
896.00,0.0083
895.00,0.0078
894.00,0.0073
893.00,0.0070
892.00,0.0067
891.00,0.0064
890.00,0.0062
889.00,0.0059
888.00,0.0057
887.00,0.0056
886.00,0.0055
885.00,0.0054
884.00,0.0053
883.00,0.0052
882.00,0.0051
881.00,0.0051
880.00,0.0050
879.00,0.0050
878.00,0.0049
877.00,0.0048
876.00,0.0047
875.00,0.0048
874.00,0.0048
873.00,0.0048
872.00,0.0048
871.00,0.0047
870.00,0.0047
869.00,0.0047
868.00,0.0047
867.00,0.0047
866.00,0.0046
865.00,0.0046
864.00,0.0045
863.00,0.0045
862.00,0.0045
861.00,0.0046
860.00,0.0046
859.00,0.0047
858.00,0.0048
857.00,0.0049
856.00,0.0049
855.00,0.0050
854.00,0.0052
853.00,0.0054
852.00,0.0056
851.00,0.0060
850.00,0.0064
849.00,0.0068
848.00,0.0073
847.00,0.0078
846.00,0.0083
845.00,0.0087
844.00,0.0091
843.00,0.0093
842.00,0.0093
841.00,0.0092
840.00,0.0090
839.00,0.0086
838.00,0.0082
837.00,0.0077
836.00,0.0071
835.00,0.0064
834.00,0.0057
833.00,0.0051
832.00,0.0047
831.00,0.0044
830.00,0.0041
829.00,0.0039
828.00,0.0038
827.00,0.0037
826.00,0.0037
825.00,0.0037
824.00,0.0037
823.00,0.0036
822.00,0.0036
821.00,0.0035
820.00,0.0035
819.00,0.0035
818.00,0.0035
817.00,0.0035
816.00,0.0035
815.00,0.0036
814.00,0.0037
813.00,0.0037
812.00,0.0037
811.00,0.0037
810.00,0.0038
809.00,0.0039
808.00,0.0040
807.00,0.0041
806.00,0.0043
805.00,0.0044
804.00,0.0045
803.00,0.0047
802.00,0.0049
801.00,0.0050
800.00,0.0052
799.00,0.0054
798.00,0.0056
797.00,0.0059
796.00,0.0062
795.00,0.0065
794.00,0.0069
793.00,0.0074
792.00,0.0079
791.00,0.0084
790.00,0.0089
789.00,0.0095
788.00,0.0100
787.00,0.0107
786.00,0.0114
785.00,0.0121
784.00,0.0129
783.00,0.0137
782.00,0.0146
781.00,0.0156
780.00,0.0168
779.00,0.0181
778.00,0.0197
777.00,0.0214
776.00,0.0233
775.00,0.0254
774.00,0.0277
773.00,0.0301
772.00,0.0328
771.00,0.0357
770.00,0.0388
769.00,0.0419
768.00,0.0450
767.00,0.0480
766.00,0.0509
765.00,0.0539
764.00,0.0570
763.00,0.0601
762.00,0.0632
761.00,0.0664
760.00,0.0696
759.00,0.0725
758.00,0.0750
757.00,0.0770
756.00,0.0783
755.00,0.0788
754.00,0.0788
753.00,0.0786
752.00,0.0782
751.00,0.0780
750.00,0.0778
749.00,0.0776
748.00,0.0770
747.00,0.0759
746.00,0.0737
745.00,0.0705
744.00,0.0661
743.00,0.0611
742.00,0.0558
741.00,0.0506
740.00,0.0458
739.00,0.0413
738.00,0.0372
737.00,0.0334
736.00,0.0298
735.00,0.0264
734.00,0.0232
733.00,0.0202
732.00,0.0175
731.00,0.0154
730.00,0.0138
729.00,0.0125
728.00,0.0116
727.00,0.0108
726.00,0.0102
725.00,0.0098
724.00,0.0096
723.00,0.0094
722.00,0.0094
721.00,0.0094
720.00,0.0096
719.00,0.0098
718.00,0.0101
717.00,0.0105
716.00,0.0111
715.00,0.0120
714.00,0.0133
713.00,0.0151
712.00,0.0176
711.00,0.0210
710.00,0.0257
709.00,0.0318
708.00,0.0397
707.00,0.0494
706.00,0.0611
705.00,0.0748
704.00,0.0905
703.00,0.1079
702.00,0.1270
701.00,0.1472
700.00,0.1680
699.00,0.1888
698.00,0.2090
697.00,0.2271
696.00,0.2404
695.00,0.2457
694.00,0.2405
693.00,0.2248
692.00,0.2016
691.00,0.1756
690.00,0.1508
689.00,0.1291
688.00,0.1113
687.00,0.0971
686.00,0.0861
685.00,0.0773
684.00,0.0701
683.00,0.0640
682.00,0.0589
681.00,0.0546
680.00,0.0509
679.00,0.0477
678.00,0.0449
677.00,0.0426
676.00,0.0406
675.00,0.0388
674.00,0.0373
673.00,0.0359
672.00,0.0347
671.00,0.0335
670.00,0.0324
669.00,0.0311
668.00,0.0296
667.00,0.0283
666.00,0.0274
665.00,0.0267
664.00,0.0259
663.00,0.0249
662.00,0.0239
661.00,0.0228
660.00,0.0218
659.00,0.0209
658.00,0.0201
657.00,0.0193
656.00,0.0184
655.00,0.0176
654.00,0.0169
653.00,0.0163
652.00,0.0158
651.00,0.0153
650.00,0.0148
649.00,0.0143
648.00,0.0137
647.00,0.0132
646.00,0.0128
645.00,0.0126
644.00,0.0125
643.00,0.0125
642.00,0.0125
641.00,0.0126
640.00,0.0127
639.00,0.0128
638.00,0.0129
637.00,0.0130
636.00,0.0132
635.00,0.0135
634.00,0.0138
633.00,0.0142
632.00,0.0146
631.00,0.0150
630.00,0.0153
629.00,0.0155
628.00,0.0157
627.00,0.0159
626.00,0.0161
625.00,0.0163
624.00,0.0165
623.00,0.0169
622.00,0.0172
621.00,0.0175
620.00,0.0174
619.00,0.0171
618.00,0.0165
617.00,0.0159
616.00,0.0154
615.00,0.0151
614.00,0.0148
613.00,0.0144
612.00,0.0135
611.00,0.0122
610.00,0.0113
609.00,0.0112
608.00,0.0119
607.00,0.0128
606.00,0.0133
605.00,0.0134
604.00,0.0135
603.00,0.0136
602.00,0.0137
601.00,0.0139
600.00,0.0140
599.00,0.0141
598.00,0.0142
597.00,0.0143
596.00,0.0145
595.00,0.0148
594.00,0.0150
593.00,0.0152
592.00,0.0153
591.00,0.0155
590.00,0.0157
589.00,0.0159
588.00,0.0161
587.00,0.0164
586.00,0.0167
585.00,0.0171
584.00,0.0174
583.00,0.0177
582.00,0.0182
581.00,0.0189
580.00,0.0197
579.00,0.0206
578.00,0.0214
577.00,0.0222
576.00,0.0231
575.00,0.0241
574.00,0.0252
573.00,0.0264
572.00,0.0276
571.00,0.0287
570.00,0.0298
569.00,0.0309
568.00,0.0320
567.00,0.0332
566.00,0.0344
565.00,0.0356
564.00,0.0367
563.00,0.0377
562.00,0.0388
561.00,0.0398
560.00,0.0408
559.00,0.0418
558.00,0.0429
557.00,0.0442
556.00,0.0459
555.00,0.0475
554.00,0.0487
553.00,0.0496
552.00,0.0507
551.00,0.0521
550.00,0.0537
549.00,0.0555
548.00,0.0575
547.00,0.0597
546.00,0.0621
545.00,0.0647
544.00,0.0674
543.00,0.0701
542.00,0.0728
541.00,0.0755
540.00,0.0779
539.00,0.0796
538.00,0.0803
537.00,0.0801
536.00,0.0789
535.00,0.0766
534.00,0.0732
533.00,0.0691
532.00,0.0648
531.00,0.0606
530.00,0.0566
529.00,0.0530
528.00,0.0497
527.00,0.0466
526.00,0.0435
525.00,0.0407
524.00,0.0381
523.00,0.0357
522.00,0.0336
521.00,0.0319
520.00,0.0306
519.00,0.0297
518.00,0.0288
517.00,0.0280
516.00,0.0273
515.00,0.0265
514.00,0.0257
513.00,0.0249
512.00,0.0240
511.00,0.0233
510.00,0.0226
509.00,0.0219
508.00,0.0212
507.00,0.0206
506.00,0.0200
505.00,0.0194
504.00,0.0188
503.00,0.0182
502.00,0.0177
501.00,0.0171
500.00,0.0167
499.00,0.0164
498.00,0.0163
497.00,0.0161
496.00,0.0157
495.00,0.0152
494.00,0.0148
493.00,0.0143
492.00,0.0140
491.00,0.0139
490.00,0.0138
489.00,0.0137
488.00,0.0134
487.00,0.0132
486.00,0.0131
485.00,0.0130
484.00,0.0127
483.00,0.0124
482.00,0.0122
481.00,0.0122
480.00,0.0122
479.00,0.0121
478.00,0.0119
477.00,0.0118
476.00,0.0118
475.00,0.0118
474.00,0.0119
473.00,0.0121
472.00,0.0124
471.00,0.0125
470.00,0.0124
469.00,0.0120
468.00,0.0118
467.00,0.0117
466.00,0.0116
465.00,0.0114
464.00,0.0108
463.00,0.0104
462.00,0.0103
461.00,0.0109
460.00,0.0118
459.00,0.0126
458.00,0.0129
457.00,0.0124
456.00,0.0114
455.00,0.0104
454.00,0.0099
453.00,0.0099
452.00,0.0101
451.00,0.0103
450.00,0.0104
449.00,0.0106
448.00,0.0109
447.00,0.0110
446.00,0.0109
445.00,0.0107
444.00,0.0106
443.00,0.0107
442.00,0.0107
441.00,0.0106
440.00,0.0106
439.00,0.0107
438.00,0.0109
437.00,0.0110
436.00,0.0107
435.00,0.0102
434.00,0.0097
433.00,0.0092
432.00,0.0087
431.00,0.0084
430.00,0.0083
429.00,0.0083
428.00,0.0080
427.00,0.0075
426.00,0.0072
425.00,0.0071
424.00,0.0071
423.00,0.0069
422.00,0.0067
421.00,0.0070
420.00,0.0083
419.00,0.0103
418.00,0.0109
417.00,0.0095
416.00,0.0074
415.00,0.0061
414.00,0.0061
413.00,0.0070
412.00,0.0081
411.00,0.0090
410.00,0.0096
409.00,0.0101
408.00,0.0105
407.00,0.0109
406.00,0.0108
405.00,0.0104
404.00,0.0101
403.00,0.0112
402.00,0.0130
401.00,0.0155
400.00,0.0183
