Created as New Dataset,Sample 757 By YargerLab Date Tuesday, July 01 2025
cm-1,A
4000.00,0.0006
3999.00,0.0006
3998.00,0.0006
3997.00,0.0006
3996.00,0.0006
3995.00,0.0006
3994.00,0.0006
3993.00,0.0007
3992.00,0.0007
3991.00,0.0007
3990.00,0.0007
3989.00,0.0006
3988.00,0.0006
3987.00,0.0006
3986.00,0.0006
3985.00,0.0007
3984.00,0.0007
3983.00,0.0007
3982.00,0.0007
3981.00,0.0007
3980.00,0.0007
3979.00,0.0007
3978.00,0.0007
3977.00,0.0007
3976.00,0.0007
3975.00,0.0007
3974.00,0.0007
3973.00,0.0007
3972.00,0.0007
3971.00,0.0007
3970.00,0.0007
3969.00,0.0007
3968.00,0.0007
3967.00,0.0007
3966.00,0.0007
3965.00,0.0007
3964.00,0.0007
3963.00,0.0007
3962.00,0.0007
3961.00,0.0007
3960.00,0.0007
3959.00,0.0007
3958.00,0.0007
3957.00,0.0007
3956.00,0.0007
3955.00,0.0007
3954.00,0.0006
3953.00,0.0006
3952.00,0.0007
3951.00,0.0007
3950.00,0.0008
3949.00,0.0009
3948.00,0.0010
3947.00,0.0010
3946.00,0.0009
3945.00,0.0009
3944.00,0.0008
3943.00,0.0007
3942.00,0.0007
3941.00,0.0007
3940.00,0.0007
3939.00,0.0008
3938.00,0.0007
3937.00,0.0008
3936.00,0.0008
3935.00,0.0008
3934.00,0.0009
3933.00,0.0009
3932.00,0.0009
3931.00,0.0008
3930.00,0.0008
3929.00,0.0007
3928.00,0.0007
3927.00,0.0007
3926.00,0.0006
3925.00,0.0006
3924.00,0.0006
3923.00,0.0007
3922.00,0.0008
3921.00,0.0009
3920.00,0.0009
3919.00,0.0010
3918.00,0.0010
3917.00,0.0010
3916.00,0.0009
3915.00,0.0008
3914.00,0.0008
3913.00,0.0007
3912.00,0.0007
3911.00,0.0007
3910.00,0.0007
3909.00,0.0007
3908.00,0.0007
3907.00,0.0007
3906.00,0.0008
3905.00,0.0009
3904.00,0.0011
3903.00,0.0013
3902.00,0.0014
3901.00,0.0014
3900.00,0.0013
3899.00,0.0011
3898.00,0.0010
3897.00,0.0009
3896.00,0.0009
3895.00,0.0008
3894.00,0.0008
3893.00,0.0007
3892.00,0.0007
3891.00,0.0008
3890.00,0.0008
3889.00,0.0009
3888.00,0.0010
3887.00,0.0011
3886.00,0.0011
3885.00,0.0010
3884.00,0.0010
3883.00,0.0010
3882.00,0.0010
3881.00,0.0010
3880.00,0.0010
3879.00,0.0010
3878.00,0.0010
3877.00,0.0010
3876.00,0.0010
3875.00,0.0009
3874.00,0.0009
3873.00,0.0009
3872.00,0.0011
3871.00,0.0012
3870.00,0.0012
3869.00,0.0012
3868.00,0.0012
3867.00,0.0012
3866.00,0.0013
3865.00,0.0012
3864.00,0.0011
3863.00,0.0011
3862.00,0.0011
3861.00,0.0012
3860.00,0.0011
3859.00,0.0011
3858.00,0.0009
3857.00,0.0008
3856.00,0.0007
3855.00,0.0007
3854.00,0.0008
3853.00,0.0008
3852.00,0.0009
3851.00,0.0010
3850.00,0.0010
3849.00,0.0010
3848.00,0.0010
3847.00,0.0010
3846.00,0.0010
3845.00,0.0010
3844.00,0.0010
3843.00,0.0010
3842.00,0.0011
3841.00,0.0011
3840.00,0.0011
3839.00,0.0011
3838.00,0.0011
3837.00,0.0010
3836.00,0.0010
3835.00,0.0010
3834.00,0.0010
3833.00,0.0010
3832.00,0.0011
3831.00,0.0010
3830.00,0.0010
3829.00,0.0010
3828.00,0.0009
3827.00,0.0009
3826.00,0.0009
3825.00,0.0010
3824.00,0.0011
3823.00,0.0012
3822.00,0.0012
3821.00,0.0011
3820.00,0.0010
3819.00,0.0011
3818.00,0.0012
3817.00,0.0012
3816.00,0.0011
3815.00,0.0010
3814.00,0.0008
3813.00,0.0008
3812.00,0.0008
3811.00,0.0008
3810.00,0.0008
3809.00,0.0008
3808.00,0.0009
3807.00,0.0009
3806.00,0.0009
3805.00,0.0009
3804.00,0.0009
3803.00,0.0010
3802.00,0.0009
3801.00,0.0008
3800.00,0.0008
3799.00,0.0009
3798.00,0.0010
3797.00,0.0010
3796.00,0.0010
3795.00,0.0009
3794.00,0.0009
3793.00,0.0008
3792.00,0.0008
3791.00,0.0007
3790.00,0.0007
3789.00,0.0006
3788.00,0.0007
3787.00,0.0007
3786.00,0.0007
3785.00,0.0007
3784.00,0.0007
3783.00,0.0007
3782.00,0.0007
3781.00,0.0008
3780.00,0.0008
3779.00,0.0008
3778.00,0.0008
3777.00,0.0008
3776.00,0.0008
3775.00,0.0008
3774.00,0.0008
3773.00,0.0008
3772.00,0.0009
3771.00,0.0009
3770.00,0.0010
3769.00,0.0010
3768.00,0.0010
3767.00,0.0010
3766.00,0.0010
3765.00,0.0010
3764.00,0.0010
3763.00,0.0010
3762.00,0.0010
3761.00,0.0011
3760.00,0.0011
3759.00,0.0011
3758.00,0.0011
3757.00,0.0011
3756.00,0.0012
3755.00,0.0012
3754.00,0.0013
3753.00,0.0014
3752.00,0.0015
3751.00,0.0016
3750.00,0.0018
3749.00,0.0018
3748.00,0.0018
3747.00,0.0018
3746.00,0.0018
3745.00,0.0018
3744.00,0.0017
3743.00,0.0015
3742.00,0.0015
3741.00,0.0016
3740.00,0.0017
3739.00,0.0019
3738.00,0.0019
3737.00,0.0019
3736.00,0.0018
3735.00,0.0017
3734.00,0.0017
3733.00,0.0017
3732.00,0.0017
3731.00,0.0016
3730.00,0.0014
3729.00,0.0014
3728.00,0.0014
3727.00,0.0014
3726.00,0.0013
3725.00,0.0013
3724.00,0.0013
3723.00,0.0013
3722.00,0.0013
3721.00,0.0012
3720.00,0.0012
3719.00,0.0011
3718.00,0.0010
3717.00,0.0010
3716.00,0.0010
3715.00,0.0010
3714.00,0.0011
3713.00,0.0012
3712.00,0.0012
3711.00,0.0012
3710.00,0.0012
3709.00,0.0012
3708.00,0.0011
3707.00,0.0011
3706.00,0.0010
3705.00,0.0009
3704.00,0.0009
3703.00,0.0008
3702.00,0.0008
3701.00,0.0008
3700.00,0.0008
3699.00,0.0008
3698.00,0.0008
3697.00,0.0008
3696.00,0.0007
3695.00,0.0007
3694.00,0.0007
3693.00,0.0008
3692.00,0.0007
3691.00,0.0007
3690.00,0.0007
3689.00,0.0008
3688.00,0.0008
3687.00,0.0007
3686.00,0.0006
3685.00,0.0006
3684.00,0.0005
3683.00,0.0004
3682.00,0.0004
3681.00,0.0003
3680.00,0.0002
3679.00,0.0001
3678.00,0.0002
3677.00,0.0003
3676.00,0.0003
3675.00,0.0002
3674.00,0.0001
3673.00,0.0001
3672.00,0.0001
3671.00,0.0000
3670.00,-0.0001
3669.00,-0.0003
3668.00,-0.0004
3667.00,-0.0004
3666.00,-0.0005
3665.00,-0.0006
3664.00,-0.0008
3663.00,-0.0008
3662.00,-0.0009
3661.00,-0.0009
3660.00,-0.0009
3659.00,-0.0008
3658.00,-0.0008
3657.00,-0.0007
3656.00,-0.0006
3655.00,-0.0006
3654.00,-0.0004
3653.00,-0.0002
3652.00,-0.0001
3651.00,0.0000
3650.00,0.0001
3649.00,0.0002
3648.00,0.0002
3647.00,0.0002
3646.00,0.0001
3645.00,-0.0000
3644.00,-0.0001
3643.00,-0.0001
3642.00,-0.0002
3641.00,-0.0002
3640.00,-0.0002
3639.00,-0.0002
3638.00,-0.0003
3637.00,-0.0002
3636.00,-0.0001
3635.00,0.0001
3634.00,0.0003
3633.00,0.0004
3632.00,0.0006
3631.00,0.0008
3630.00,0.0010
3629.00,0.0010
3628.00,0.0010
3627.00,0.0011
3626.00,0.0011
3625.00,0.0011
3624.00,0.0011
3623.00,0.0011
3622.00,0.0010
3621.00,0.0010
3620.00,0.0010
3619.00,0.0010
3618.00,0.0011
3617.00,0.0013
3616.00,0.0014
3615.00,0.0015
3614.00,0.0015
3613.00,0.0015
3612.00,0.0016
3611.00,0.0016
3610.00,0.0016
3609.00,0.0016
3608.00,0.0015
3607.00,0.0014
3606.00,0.0013
3605.00,0.0013
3604.00,0.0013
3603.00,0.0012
3602.00,0.0012
3601.00,0.0011
3600.00,0.0011
3599.00,0.0011
3598.00,0.0012
3597.00,0.0012
3596.00,0.0012
3595.00,0.0012
3594.00,0.0012
3593.00,0.0012
3592.00,0.0013
3591.00,0.0014
3590.00,0.0015
3589.00,0.0015
3588.00,0.0015
3587.00,0.0014
3586.00,0.0013
3585.00,0.0013
3584.00,0.0013
3583.00,0.0012
3582.00,0.0012
3581.00,0.0011
3580.00,0.0010
3579.00,0.0010
3578.00,0.0010
3577.00,0.0010
3576.00,0.0010
3575.00,0.0010
3574.00,0.0010
3573.00,0.0010
3572.00,0.0011
3571.00,0.0012
3570.00,0.0013
3569.00,0.0014
3568.00,0.0015
3567.00,0.0015
3566.00,0.0015
3565.00,0.0014
3564.00,0.0014
3563.00,0.0013
3562.00,0.0013
3561.00,0.0012
3560.00,0.0011
3559.00,0.0011
3558.00,0.0011
3557.00,0.0011
3556.00,0.0011
3555.00,0.0011
3554.00,0.0011
3553.00,0.0011
3552.00,0.0012
3551.00,0.0012
3550.00,0.0013
3549.00,0.0014
3548.00,0.0014
3547.00,0.0015
3546.00,0.0015
3545.00,0.0014
3544.00,0.0014
3543.00,0.0013
3542.00,0.0012
3541.00,0.0012
3540.00,0.0012
3539.00,0.0012
3538.00,0.0012
3537.00,0.0012
3536.00,0.0012
3535.00,0.0012
3534.00,0.0012
3533.00,0.0012
3532.00,0.0013
3531.00,0.0013
3530.00,0.0013
3529.00,0.0013
3528.00,0.0014
3527.00,0.0014
3526.00,0.0015
3525.00,0.0015
3524.00,0.0015
3523.00,0.0015
3522.00,0.0014
3521.00,0.0014
3520.00,0.0014
3519.00,0.0013
3518.00,0.0013
3517.00,0.0013
3516.00,0.0013
3515.00,0.0013
3514.00,0.0013
3513.00,0.0014
3512.00,0.0014
3511.00,0.0014
3510.00,0.0014
3509.00,0.0014
3508.00,0.0014
3507.00,0.0014
3506.00,0.0015
3505.00,0.0015
3504.00,0.0015
3503.00,0.0015
3502.00,0.0015
3501.00,0.0015
3500.00,0.0015
3499.00,0.0015
3498.00,0.0015
3497.00,0.0014
3496.00,0.0014
3495.00,0.0014
3494.00,0.0014
3493.00,0.0014
3492.00,0.0014
3491.00,0.0014
3490.00,0.0014
3489.00,0.0014
3488.00,0.0014
3487.00,0.0014
3486.00,0.0014
3485.00,0.0014
3484.00,0.0014
3483.00,0.0014
3482.00,0.0014
3481.00,0.0014
3480.00,0.0015
3479.00,0.0015
3478.00,0.0015
3477.00,0.0015
3476.00,0.0014
3475.00,0.0014
3474.00,0.0014
3473.00,0.0015
3472.00,0.0015
3471.00,0.0015
3470.00,0.0016
3469.00,0.0016
3468.00,0.0016
3467.00,0.0015
3466.00,0.0015
3465.00,0.0016
3464.00,0.0016
3463.00,0.0016
3462.00,0.0016
3461.00,0.0016
3460.00,0.0016
3459.00,0.0016
3458.00,0.0015
3457.00,0.0015
3456.00,0.0015
3455.00,0.0015
3454.00,0.0015
3453.00,0.0016
3452.00,0.0016
3451.00,0.0016
3450.00,0.0016
3449.00,0.0016
3448.00,0.0016
3447.00,0.0016
3446.00,0.0017
3445.00,0.0017
3444.00,0.0017
3443.00,0.0017
3442.00,0.0016
3441.00,0.0016
3440.00,0.0017
3439.00,0.0017
3438.00,0.0017
3437.00,0.0017
3436.00,0.0017
3435.00,0.0017
3434.00,0.0017
3433.00,0.0017
3432.00,0.0017
3431.00,0.0017
3430.00,0.0017
3429.00,0.0017
3428.00,0.0017
3427.00,0.0017
3426.00,0.0017
3425.00,0.0017
3424.00,0.0017
3423.00,0.0017
3422.00,0.0017
3421.00,0.0017
3420.00,0.0017
3419.00,0.0017
3418.00,0.0017
3417.00,0.0017
3416.00,0.0017
3415.00,0.0018
3414.00,0.0018
3413.00,0.0018
3412.00,0.0018
3411.00,0.0018
3410.00,0.0018
3409.00,0.0018
3408.00,0.0018
3407.00,0.0018
3406.00,0.0018
3405.00,0.0017
3404.00,0.0017
3403.00,0.0017
3402.00,0.0018
3401.00,0.0018
3400.00,0.0018
3399.00,0.0018
3398.00,0.0018
3397.00,0.0018
3396.00,0.0018
3395.00,0.0018
3394.00,0.0018
3393.00,0.0018
3392.00,0.0018
3391.00,0.0018
3390.00,0.0018
3389.00,0.0018
3388.00,0.0018
3387.00,0.0018
3386.00,0.0018
3385.00,0.0018
3384.00,0.0018
3383.00,0.0018
3382.00,0.0018
3381.00,0.0018
3380.00,0.0019
3379.00,0.0019
3378.00,0.0019
3377.00,0.0019
3376.00,0.0019
3375.00,0.0019
3374.00,0.0019
3373.00,0.0019
3372.00,0.0019
3371.00,0.0020
3370.00,0.0020
3369.00,0.0019
3368.00,0.0019
3367.00,0.0019
3366.00,0.0019
3365.00,0.0019
3364.00,0.0019
3363.00,0.0020
3362.00,0.0020
3361.00,0.0020
3360.00,0.0019
3359.00,0.0019
3358.00,0.0019
3357.00,0.0019
3356.00,0.0019
3355.00,0.0019
3354.00,0.0019
3353.00,0.0019
3352.00,0.0020
3351.00,0.0020
3350.00,0.0020
3349.00,0.0019
3348.00,0.0019
3347.00,0.0019
3346.00,0.0019
3345.00,0.0019
3344.00,0.0019
3343.00,0.0019
3342.00,0.0019
3341.00,0.0019
3340.00,0.0019
3339.00,0.0019
3338.00,0.0019
3337.00,0.0019
3336.00,0.0019
3335.00,0.0019
3334.00,0.0019
3333.00,0.0020
3332.00,0.0020
3331.00,0.0020
3330.00,0.0020
3329.00,0.0019
3328.00,0.0019
3327.00,0.0019
3326.00,0.0020
3325.00,0.0020
3324.00,0.0020
3323.00,0.0020
3322.00,0.0020
3321.00,0.0019
3320.00,0.0019
3319.00,0.0019
3318.00,0.0019
3317.00,0.0019
3316.00,0.0020
3315.00,0.0020
3314.00,0.0020
3313.00,0.0020
3312.00,0.0020
3311.00,0.0020
3310.00,0.0020
3309.00,0.0020
3308.00,0.0020
3307.00,0.0020
3306.00,0.0020
3305.00,0.0020
3304.00,0.0020
3303.00,0.0020
3302.00,0.0019
3301.00,0.0019
3300.00,0.0019
3299.00,0.0020
3298.00,0.0020
3297.00,0.0020
3296.00,0.0020
3295.00,0.0020
3294.00,0.0020
3293.00,0.0021
3292.00,0.0021
3291.00,0.0020
3290.00,0.0020
3289.00,0.0020
3288.00,0.0020
3287.00,0.0020
3286.00,0.0020
3285.00,0.0020
3284.00,0.0019
3283.00,0.0019
3282.00,0.0020
3281.00,0.0020
3280.00,0.0020
3279.00,0.0020
3278.00,0.0020
3277.00,0.0020
3276.00,0.0020
3275.00,0.0020
3274.00,0.0020
3273.00,0.0020
3272.00,0.0019
3271.00,0.0019
3270.00,0.0019
3269.00,0.0019
3268.00,0.0019
3267.00,0.0019
3266.00,0.0019
3265.00,0.0019
3264.00,0.0018
3263.00,0.0018
3262.00,0.0018
3261.00,0.0018
3260.00,0.0018
3259.00,0.0018
3258.00,0.0018
3257.00,0.0019
3256.00,0.0019
3255.00,0.0019
3254.00,0.0019
3253.00,0.0018
3252.00,0.0018
3251.00,0.0018
3250.00,0.0018
3249.00,0.0018
3248.00,0.0018
3247.00,0.0018
3246.00,0.0018
3245.00,0.0018
3244.00,0.0017
3243.00,0.0017
3242.00,0.0017
3241.00,0.0017
3240.00,0.0017
3239.00,0.0017
3238.00,0.0017
3237.00,0.0017
3236.00,0.0017
3235.00,0.0016
3234.00,0.0016
3233.00,0.0016
3232.00,0.0016
3231.00,0.0016
3230.00,0.0016
3229.00,0.0016
3228.00,0.0016
3227.00,0.0015
3226.00,0.0015
3225.00,0.0015
3224.00,0.0015
3223.00,0.0015
3222.00,0.0016
3221.00,0.0016
3220.00,0.0016
3219.00,0.0016
3218.00,0.0016
3217.00,0.0016
3216.00,0.0016
3215.00,0.0016
3214.00,0.0016
3213.00,0.0016
3212.00,0.0016
3211.00,0.0015
3210.00,0.0015
3209.00,0.0015
3208.00,0.0015
3207.00,0.0015
3206.00,0.0015
3205.00,0.0015
3204.00,0.0015
3203.00,0.0014
3202.00,0.0014
3201.00,0.0014
3200.00,0.0014
3199.00,0.0014
3198.00,0.0014
3197.00,0.0014
3196.00,0.0014
3195.00,0.0015
3194.00,0.0015
3193.00,0.0015
3192.00,0.0014
3191.00,0.0014
3190.00,0.0014
3189.00,0.0014
3188.00,0.0014
3187.00,0.0014
3186.00,0.0014
3185.00,0.0014
3184.00,0.0014
3183.00,0.0014
3182.00,0.0014
3181.00,0.0014
3180.00,0.0014
3179.00,0.0014
3178.00,0.0014
3177.00,0.0014
3176.00,0.0014
3175.00,0.0014
3174.00,0.0014
3173.00,0.0014
3172.00,0.0014
3171.00,0.0014
3170.00,0.0014
3169.00,0.0014
3168.00,0.0014
3167.00,0.0014
3166.00,0.0014
3165.00,0.0014
3164.00,0.0014
3163.00,0.0014
3162.00,0.0014
3161.00,0.0014
3160.00,0.0014
3159.00,0.0014
3158.00,0.0014
3157.00,0.0014
3156.00,0.0014
3155.00,0.0014
3154.00,0.0015
3153.00,0.0015
3152.00,0.0014
3151.00,0.0014
3150.00,0.0013
3149.00,0.0013
3148.00,0.0013
3147.00,0.0013
3146.00,0.0014
3145.00,0.0014
3144.00,0.0014
3143.00,0.0014
3142.00,0.0015
3141.00,0.0014
3140.00,0.0014
3139.00,0.0014
3138.00,0.0013
3137.00,0.0013
3136.00,0.0013
3135.00,0.0013
3134.00,0.0013
3133.00,0.0013
3132.00,0.0014
3131.00,0.0014
3130.00,0.0014
3129.00,0.0013
3128.00,0.0013
3127.00,0.0013
3126.00,0.0013
3125.00,0.0014
3124.00,0.0014
3123.00,0.0014
3122.00,0.0015
3121.00,0.0015
3120.00,0.0015
3119.00,0.0015
3118.00,0.0015
3117.00,0.0016
3116.00,0.0016
3115.00,0.0016
3114.00,0.0017
3113.00,0.0018
3112.00,0.0019
3111.00,0.0019
3110.00,0.0020
3109.00,0.0021
3108.00,0.0022
3107.00,0.0023
3106.00,0.0024
3105.00,0.0025
3104.00,0.0026
3103.00,0.0026
3102.00,0.0026
3101.00,0.0026
3100.00,0.0026
3099.00,0.0026
3098.00,0.0025
3097.00,0.0025
3096.00,0.0024
3095.00,0.0024
3094.00,0.0025
3093.00,0.0026
3092.00,0.0028
3091.00,0.0030
3090.00,0.0033
3089.00,0.0036
3088.00,0.0039
3087.00,0.0043
3086.00,0.0047
3085.00,0.0051
3084.00,0.0054
3083.00,0.0056
3082.00,0.0056
3081.00,0.0056
3080.00,0.0054
3079.00,0.0052
3078.00,0.0049
3077.00,0.0047
3076.00,0.0045
3075.00,0.0043
3074.00,0.0042
3073.00,0.0042
3072.00,0.0042
3071.00,0.0043
3070.00,0.0044
3069.00,0.0046
3068.00,0.0049
3067.00,0.0053
3066.00,0.0056
3065.00,0.0061
3064.00,0.0065
3063.00,0.0069
3062.00,0.0072
3061.00,0.0075
3060.00,0.0076
3059.00,0.0075
3058.00,0.0074
3057.00,0.0071
3056.00,0.0067
3055.00,0.0063
3054.00,0.0059
3053.00,0.0056
3052.00,0.0052
3051.00,0.0049
3050.00,0.0046
3049.00,0.0044
3048.00,0.0042
3047.00,0.0041
3046.00,0.0040
3045.00,0.0040
3044.00,0.0040
3043.00,0.0041
3042.00,0.0042
3041.00,0.0043
3040.00,0.0045
3039.00,0.0047
3038.00,0.0051
3037.00,0.0055
3036.00,0.0060
3035.00,0.0066
3034.00,0.0073
3033.00,0.0081
3032.00,0.0090
3031.00,0.0099
3030.00,0.0109
3029.00,0.0119
3028.00,0.0128
3027.00,0.0135
3026.00,0.0139
3025.00,0.0140
3024.00,0.0137
3023.00,0.0131
3022.00,0.0121
3021.00,0.0109
3020.00,0.0097
3019.00,0.0084
3018.00,0.0072
3017.00,0.0061
3016.00,0.0052
3015.00,0.0044
3014.00,0.0037
3013.00,0.0031
3012.00,0.0025
3011.00,0.0020
3010.00,0.0015
3009.00,0.0011
3008.00,0.0007
3007.00,0.0003
3006.00,-0.0001
3005.00,-0.0004
3004.00,-0.0008
3003.00,-0.0011
3002.00,-0.0015
3001.00,-0.0020
3000.00,-0.0025
2999.00,-0.0031
2998.00,-0.0036
2997.00,-0.0042
2996.00,-0.0047
2995.00,-0.0053
2994.00,-0.0057
2993.00,-0.0061
2992.00,-0.0065
2991.00,-0.0068
2990.00,-0.0071
2989.00,-0.0074
2988.00,-0.0077
2987.00,-0.0081
2986.00,-0.0088
2985.00,-0.0099
2984.00,-0.0113
2983.00,-0.0127
2982.00,-0.0137
2981.00,-0.0140
2980.00,-0.0137
2979.00,-0.0130
2978.00,-0.0122
2977.00,-0.0114
2976.00,-0.0109
2975.00,-0.0106
2974.00,-0.0106
2973.00,-0.0107
2972.00,-0.0108
2971.00,-0.0106
2970.00,-0.0102
2969.00,-0.0095
2968.00,-0.0088
2967.00,-0.0082
2966.00,-0.0077
2965.00,-0.0072
2964.00,-0.0067
2963.00,-0.0063
2962.00,-0.0059
2961.00,-0.0055
2960.00,-0.0051
2959.00,-0.0048
2958.00,-0.0044
2957.00,-0.0041
2956.00,-0.0037
2955.00,-0.0032
2954.00,-0.0028
2953.00,-0.0023
2952.00,-0.0019
2951.00,-0.0014
2950.00,-0.0009
2949.00,-0.0004
2948.00,0.0000
2947.00,0.0006
2946.00,0.0011
2945.00,0.0017
2944.00,0.0023
2943.00,0.0028
2942.00,0.0033
2941.00,0.0038
2940.00,0.0042
2939.00,0.0047
2938.00,0.0053
2937.00,0.0058
2936.00,0.0064
2935.00,0.0070
2934.00,0.0075
2933.00,0.0080
2932.00,0.0086
2931.00,0.0091
2930.00,0.0097
2929.00,0.0103
2928.00,0.0108
2927.00,0.0112
2926.00,0.0116
2925.00,0.0119
2924.00,0.0121
2923.00,0.0122
2922.00,0.0123
2921.00,0.0123
2920.00,0.0122
2919.00,0.0121
2918.00,0.0120
2917.00,0.0117
2916.00,0.0114
2915.00,0.0111
2914.00,0.0108
2913.00,0.0105
2912.00,0.0101
2911.00,0.0098
2910.00,0.0094
2909.00,0.0089
2908.00,0.0085
2907.00,0.0080
2906.00,0.0075
2905.00,0.0070
2904.00,0.0066
2903.00,0.0061
2902.00,0.0057
2901.00,0.0053
2900.00,0.0049
2899.00,0.0045
2898.00,0.0041
2897.00,0.0037
2896.00,0.0033
2895.00,0.0030
2894.00,0.0026
2893.00,0.0022
2892.00,0.0019
2891.00,0.0016
2890.00,0.0014
2889.00,0.0012
2888.00,0.0011
2887.00,0.0009
2886.00,0.0008
2885.00,0.0007
2884.00,0.0006
2883.00,0.0006
2882.00,0.0007
2881.00,0.0008
2880.00,0.0009
2879.00,0.0011
2878.00,0.0012
2877.00,0.0012
2876.00,0.0013
2875.00,0.0013
2874.00,0.0013
2873.00,0.0013
2872.00,0.0013
2871.00,0.0013
2870.00,0.0013
2869.00,0.0014
2868.00,0.0015
2867.00,0.0017
2866.00,0.0019
2865.00,0.0021
2864.00,0.0023
2863.00,0.0025
2862.00,0.0027
2861.00,0.0030
2860.00,0.0033
2859.00,0.0036
2858.00,0.0039
2857.00,0.0042
2856.00,0.0045
2855.00,0.0047
2854.00,0.0050
2853.00,0.0052
2852.00,0.0054
2851.00,0.0056
2850.00,0.0057
2849.00,0.0058
2848.00,0.0059
2847.00,0.0059
2846.00,0.0059
2845.00,0.0057
2844.00,0.0055
2843.00,0.0053
2842.00,0.0049
2841.00,0.0046
2840.00,0.0042
2839.00,0.0038
2838.00,0.0035
2837.00,0.0031
2836.00,0.0028
2835.00,0.0025
2834.00,0.0023
2833.00,0.0021
2832.00,0.0020
2831.00,0.0018
2830.00,0.0017
2829.00,0.0016
2828.00,0.0016
2827.00,0.0015
2826.00,0.0015
2825.00,0.0014
2824.00,0.0014
2823.00,0.0014
2822.00,0.0014
2821.00,0.0014
2820.00,0.0013
2819.00,0.0013
2818.00,0.0013
2817.00,0.0013
2816.00,0.0013
2815.00,0.0013
2814.00,0.0013
2813.00,0.0013
2812.00,0.0013
2811.00,0.0013
2810.00,0.0013
2809.00,0.0013
2808.00,0.0013
2807.00,0.0013
2806.00,0.0013
2805.00,0.0013
2804.00,0.0013
2803.00,0.0013
2802.00,0.0013
2801.00,0.0012
2800.00,0.0012
2799.00,0.0012
2798.00,0.0012
2797.00,0.0012
2796.00,0.0012
2795.00,0.0012
2794.00,0.0012
2793.00,0.0012
2792.00,0.0012
2791.00,0.0012
2790.00,0.0012
2789.00,0.0012
2788.00,0.0011
2787.00,0.0011
2786.00,0.0011
2785.00,0.0011
2784.00,0.0011
2783.00,0.0011
2782.00,0.0011
2781.00,0.0011
2780.00,0.0011
2779.00,0.0012
2778.00,0.0011
2777.00,0.0011
2776.00,0.0011
2775.00,0.0011
2774.00,0.0011
2773.00,0.0011
2772.00,0.0011
2771.00,0.0011
2770.00,0.0011
2769.00,0.0011
2768.00,0.0010
2767.00,0.0010
2766.00,0.0010
2765.00,0.0010
2764.00,0.0010
2763.00,0.0010
2762.00,0.0010
2761.00,0.0010
2760.00,0.0010
2759.00,0.0011
2758.00,0.0011
2757.00,0.0010
2756.00,0.0010
2755.00,0.0010
2754.00,0.0010
2753.00,0.0011
2752.00,0.0011
2751.00,0.0011
2750.00,0.0011
2749.00,0.0011
2748.00,0.0011
2747.00,0.0011
2746.00,0.0011
2745.00,0.0010
2744.00,0.0010
2743.00,0.0010
2742.00,0.0010
2741.00,0.0010
2740.00,0.0011
2739.00,0.0011
2738.00,0.0011
2737.00,0.0011
2736.00,0.0011
2735.00,0.0011
2734.00,0.0011
2733.00,0.0011
2732.00,0.0011
2731.00,0.0011
2730.00,0.0011
2729.00,0.0011
2728.00,0.0011
2727.00,0.0011
2726.00,0.0011
2725.00,0.0012
2724.00,0.0012
2723.00,0.0012
2722.00,0.0011
2721.00,0.0011
2720.00,0.0011
2719.00,0.0011
2718.00,0.0012
2717.00,0.0012
2716.00,0.0012
2715.00,0.0012
2714.00,0.0012
2713.00,0.0012
2712.00,0.0012
2711.00,0.0012
2710.00,0.0012
2709.00,0.0012
2708.00,0.0012
2707.00,0.0012
2706.00,0.0012
2705.00,0.0012
2704.00,0.0012
2703.00,0.0012
2702.00,0.0012
2701.00,0.0012
2700.00,0.0012
2699.00,0.0012
2698.00,0.0012
2697.00,0.0012
2696.00,0.0012
2695.00,0.0012
2694.00,0.0012
2693.00,0.0011
2692.00,0.0011
2691.00,0.0011
2690.00,0.0011
2689.00,0.0011
2688.00,0.0011
2687.00,0.0011
2686.00,0.0011
2685.00,0.0011
2684.00,0.0011
2683.00,0.0011
2682.00,0.0011
2681.00,0.0011
2680.00,0.0011
2679.00,0.0011
2678.00,0.0011
2677.00,0.0011
2676.00,0.0011
2675.00,0.0011
2674.00,0.0011
2673.00,0.0011
2672.00,0.0011
2671.00,0.0011
2670.00,0.0011
2669.00,0.0011
2668.00,0.0011
2667.00,0.0011
2666.00,0.0011
2665.00,0.0011
2664.00,0.0011
2663.00,0.0011
2662.00,0.0011
2661.00,0.0012
2660.00,0.0012
2659.00,0.0012
2658.00,0.0013
2657.00,0.0013
2656.00,0.0013
2655.00,0.0013
2654.00,0.0013
2653.00,0.0013
2652.00,0.0013
2651.00,0.0013
2650.00,0.0013
2649.00,0.0013
2648.00,0.0013
2647.00,0.0013
2646.00,0.0013
2645.00,0.0013
2644.00,0.0013
2643.00,0.0013
2642.00,0.0013
2641.00,0.0013
2640.00,0.0013
2639.00,0.0013
2638.00,0.0013
2637.00,0.0014
2636.00,0.0014
2635.00,0.0014
2634.00,0.0014
2633.00,0.0014
2632.00,0.0014
2631.00,0.0014
2630.00,0.0014
2629.00,0.0014
2628.00,0.0013
2627.00,0.0013
2626.00,0.0013
2625.00,0.0013
2624.00,0.0013
2623.00,0.0013
2622.00,0.0013
2621.00,0.0013
2620.00,0.0013
2619.00,0.0013
2618.00,0.0013
2617.00,0.0013
2616.00,0.0013
2615.00,0.0013
2614.00,0.0013
2613.00,0.0013
2612.00,0.0013
2611.00,0.0013
2610.00,0.0013
2609.00,0.0013
2608.00,0.0013
2607.00,0.0013
2606.00,0.0013
2605.00,0.0013
2604.00,0.0013
2603.00,0.0013
2602.00,0.0013
2601.00,0.0013
2600.00,0.0013
2599.00,0.0013
2598.00,0.0013
2597.00,0.0013
2596.00,0.0013
2595.00,0.0012
2594.00,0.0012
2593.00,0.0012
2592.00,0.0012
2591.00,0.0012
2590.00,0.0012
2589.00,0.0012
2588.00,0.0012
2587.00,0.0012
2586.00,0.0013
2585.00,0.0013
2584.00,0.0013
2583.00,0.0013
2582.00,0.0013
2581.00,0.0013
2580.00,0.0013
2579.00,0.0013
2578.00,0.0013
2577.00,0.0014
2576.00,0.0014
2575.00,0.0013
2574.00,0.0013
2573.00,0.0012
2572.00,0.0011
2571.00,0.0011
2570.00,0.0010
2569.00,0.0011
2568.00,0.0011
2567.00,0.0011
2566.00,0.0011
2565.00,0.0011
2564.00,0.0011
2563.00,0.0011
2562.00,0.0011
2561.00,0.0011
2560.00,0.0012
2559.00,0.0012
2558.00,0.0012
2557.00,0.0011
2556.00,0.0011
2555.00,0.0011
2554.00,0.0011
2553.00,0.0012
2552.00,0.0012
2551.00,0.0012
2550.00,0.0011
2549.00,0.0011
2548.00,0.0011
2547.00,0.0011
2546.00,0.0011
2545.00,0.0011
2544.00,0.0011
2543.00,0.0012
2542.00,0.0012
2541.00,0.0012
2540.00,0.0011
2539.00,0.0011
2538.00,0.0011
2537.00,0.0011
2536.00,0.0010
2535.00,0.0010
2534.00,0.0011
2533.00,0.0011
2532.00,0.0011
2531.00,0.0010
2530.00,0.0010
2529.00,0.0010
2528.00,0.0010
2527.00,0.0010
2526.00,0.0010
2525.00,0.0010
2524.00,0.0010
2523.00,0.0010
2522.00,0.0010
2521.00,0.0010
2520.00,0.0009
2519.00,0.0009
2518.00,0.0009
2517.00,0.0010
2516.00,0.0010
2515.00,0.0010
2514.00,0.0010
2513.00,0.0010
2512.00,0.0010
2511.00,0.0010
2510.00,0.0010
2509.00,0.0010
2508.00,0.0009
2507.00,0.0009
2506.00,0.0010
2505.00,0.0010
2504.00,0.0011
2503.00,0.0011
2502.00,0.0011
2501.00,0.0010
2500.00,0.0010
2499.00,0.0010
2498.00,0.0010
2497.00,0.0010
2496.00,0.0010
2495.00,0.0011
2494.00,0.0011
2493.00,0.0010
2492.00,0.0010
2491.00,0.0010
2490.00,0.0010
2489.00,0.0010
2488.00,0.0010
2487.00,0.0010
2486.00,0.0009
2485.00,0.0009
2484.00,0.0009
2483.00,0.0009
2482.00,0.0009
2481.00,0.0009
2480.00,0.0009
2479.00,0.0009
2478.00,0.0009
2477.00,0.0009
2476.00,0.0010
2475.00,0.0010
2474.00,0.0009
2473.00,0.0009
2472.00,0.0008
2471.00,0.0008
2470.00,0.0009
2469.00,0.0009
2468.00,0.0009
2467.00,0.0009
2466.00,0.0009
2465.00,0.0009
2464.00,0.0009
2463.00,0.0009
2462.00,0.0009
2461.00,0.0010
2460.00,0.0010
2459.00,0.0011
2458.00,0.0011
2457.00,0.0011
2456.00,0.0011
2455.00,0.0011
2454.00,0.0011
2453.00,0.0011
2452.00,0.0011
2451.00,0.0011
2450.00,0.0010
2449.00,0.0010
2448.00,0.0009
2447.00,0.0009
2446.00,0.0009
2445.00,0.0009
2444.00,0.0009
2443.00,0.0009
2442.00,0.0009
2441.00,0.0009
2440.00,0.0009
2439.00,0.0009
2438.00,0.0009
2437.00,0.0008
2436.00,0.0008
2435.00,0.0008
2434.00,0.0008
2433.00,0.0009
2432.00,0.0009
2431.00,0.0009
2430.00,0.0009
2429.00,0.0009
2428.00,0.0009
2427.00,0.0009
2426.00,0.0008
2425.00,0.0008
2424.00,0.0008
2423.00,0.0008
2422.00,0.0008
2421.00,0.0007
2420.00,0.0007
2419.00,0.0008
2418.00,0.0008
2417.00,0.0008
2416.00,0.0008
2415.00,0.0008
2414.00,0.0008
2413.00,0.0008
2412.00,0.0008
2411.00,0.0008
2410.00,0.0008
2409.00,0.0008
2408.00,0.0008
2407.00,0.0007
2406.00,0.0007
2405.00,0.0007
2404.00,0.0007
2403.00,0.0007
2402.00,0.0007
2401.00,0.0007
2400.00,0.0007
2399.00,0.0008
2398.00,0.0008
2397.00,0.0008
2396.00,0.0008
2395.00,0.0007
2394.00,0.0007
2393.00,0.0008
2392.00,0.0007
2391.00,0.0007
2390.00,0.0007
2389.00,0.0007
2388.00,0.0007
2387.00,0.0007
2386.00,0.0007
2385.00,0.0007
2384.00,0.0007
2383.00,0.0007
2382.00,0.0007
2381.00,0.0007
2380.00,0.0006
2379.00,0.0006
2378.00,0.0006
2377.00,0.0006
2376.00,0.0007
2375.00,0.0007
2374.00,0.0007
2373.00,0.0007
2372.00,0.0007
2371.00,0.0006
2370.00,0.0006
2369.00,0.0006
2368.00,0.0006
2367.00,0.0007
2366.00,0.0008
2365.00,0.0008
2364.00,0.0009
2363.00,0.0009
2362.00,0.0009
2361.00,0.0009
2360.00,0.0008
2359.00,0.0008
2358.00,0.0008
2357.00,0.0008
2356.00,0.0008
2355.00,0.0009
2354.00,0.0009
2353.00,0.0009
2352.00,0.0009
2351.00,0.0009
2350.00,0.0009
2349.00,0.0010
2348.00,0.0010
2347.00,0.0010
2346.00,0.0011
2345.00,0.0011
2344.00,0.0011
2343.00,0.0011
2342.00,0.0011
2341.00,0.0011
2340.00,0.0011
2339.00,0.0011
2338.00,0.0011
2337.00,0.0011
2336.00,0.0011
2335.00,0.0011
2334.00,0.0010
2333.00,0.0010
2332.00,0.0010
2331.00,0.0011
2330.00,0.0011
2329.00,0.0012
2328.00,0.0014
2327.00,0.0016
2326.00,0.0018
2325.00,0.0019
2324.00,0.0018
2323.00,0.0017
2322.00,0.0016
2321.00,0.0015
2320.00,0.0014
2319.00,0.0015
2318.00,0.0015
2317.00,0.0015
2316.00,0.0015
2315.00,0.0015
2314.00,0.0014
2313.00,0.0014
2312.00,0.0014
2311.00,0.0014
2310.00,0.0014
2309.00,0.0013
2308.00,0.0013
2307.00,0.0013
2306.00,0.0013
2305.00,0.0013
2304.00,0.0013
2303.00,0.0013
2302.00,0.0013
2301.00,0.0013
2300.00,0.0013
2299.00,0.0013
2298.00,0.0013
2297.00,0.0013
2296.00,0.0013
2295.00,0.0014
2294.00,0.0014
2293.00,0.0015
2292.00,0.0016
2291.00,0.0016
2290.00,0.0016
2289.00,0.0016
2288.00,0.0016
2287.00,0.0017
2286.00,0.0016
2285.00,0.0016
2284.00,0.0015
2283.00,0.0014
2282.00,0.0014
2281.00,0.0014
2280.00,0.0014
2279.00,0.0014
2278.00,0.0014
2277.00,0.0014
2276.00,0.0014
2275.00,0.0014
2274.00,0.0014
2273.00,0.0013
2272.00,0.0012
2271.00,0.0012
2270.00,0.0012
2269.00,0.0012
2268.00,0.0012
2267.00,0.0012
2266.00,0.0013
2265.00,0.0013
2264.00,0.0013
2263.00,0.0013
2262.00,0.0013
2261.00,0.0012
2260.00,0.0012
2259.00,0.0012
2258.00,0.0012
2257.00,0.0012
2256.00,0.0012
2255.00,0.0011
2254.00,0.0011
2253.00,0.0011
2252.00,0.0011
2251.00,0.0011
2250.00,0.0011
2249.00,0.0011
2248.00,0.0012
2247.00,0.0012
2246.00,0.0013
2245.00,0.0012
2244.00,0.0012
2243.00,0.0011
2242.00,0.0011
2241.00,0.0011
2240.00,0.0012
2239.00,0.0012
2238.00,0.0012
2237.00,0.0012
2236.00,0.0011
2235.00,0.0011
2234.00,0.0011
2233.00,0.0011
2232.00,0.0011
2231.00,0.0011
2230.00,0.0011
2229.00,0.0010
2228.00,0.0010
2227.00,0.0009
2226.00,0.0008
2225.00,0.0008
2224.00,0.0008
2223.00,0.0009
2222.00,0.0010
2221.00,0.0010
2220.00,0.0010
2219.00,0.0009
2218.00,0.0009
2217.00,0.0009
2216.00,0.0010
2215.00,0.0011
2214.00,0.0011
2213.00,0.0010
2212.00,0.0009
2211.00,0.0008
2210.00,0.0007
2209.00,0.0007
2208.00,0.0007
2207.00,0.0008
2206.00,0.0009
2205.00,0.0009
2204.00,0.0009
2203.00,0.0009
2202.00,0.0009
2201.00,0.0010
2200.00,0.0010
2199.00,0.0010
2198.00,0.0010
2197.00,0.0011
2196.00,0.0011
2195.00,0.0011
2194.00,0.0010
2193.00,0.0010
2192.00,0.0011
2191.00,0.0011
2190.00,0.0012
2189.00,0.0011
2188.00,0.0011
2187.00,0.0011
2186.00,0.0011
2185.00,0.0011
2184.00,0.0010
2183.00,0.0010
2182.00,0.0009
2181.00,0.0009
2180.00,0.0009
2179.00,0.0008
2178.00,0.0007
2177.00,0.0006
2176.00,0.0005
2175.00,0.0005
2174.00,0.0006
2173.00,0.0007
2172.00,0.0009
2171.00,0.0011
2170.00,0.0013
2169.00,0.0015
2168.00,0.0016
2167.00,0.0017
2166.00,0.0017
2165.00,0.0017
2164.00,0.0018
2163.00,0.0017
2162.00,0.0014
2161.00,0.0007
2160.00,-0.0002
2159.00,-0.0009
2158.00,-0.0012
2157.00,-0.0011
2156.00,-0.0009
2155.00,-0.0007
2154.00,-0.0006
2153.00,-0.0005
2152.00,-0.0004
2151.00,-0.0003
2150.00,-0.0002
2149.00,-0.0001
2148.00,-0.0002
2147.00,-0.0004
2146.00,-0.0005
2145.00,-0.0005
2144.00,-0.0004
2143.00,-0.0002
2142.00,-0.0001
2141.00,-0.0001
2140.00,-0.0000
2139.00,-0.0000
2138.00,-0.0000
2137.00,-0.0001
2136.00,-0.0002
2135.00,-0.0003
2134.00,-0.0004
2133.00,-0.0004
2132.00,-0.0003
2131.00,-0.0002
2130.00,-0.0002
2129.00,-0.0001
2128.00,-0.0000
2127.00,0.0001
2126.00,0.0003
2125.00,0.0003
2124.00,0.0004
2123.00,0.0004
2122.00,0.0005
2121.00,0.0005
2120.00,0.0005
2119.00,0.0005
2118.00,0.0005
2117.00,0.0005
2116.00,0.0006
2115.00,0.0007
2114.00,0.0008
2113.00,0.0008
2112.00,0.0007
2111.00,0.0007
2110.00,0.0007
2109.00,0.0007
2108.00,0.0007
2107.00,0.0008
2106.00,0.0008
2105.00,0.0007
2104.00,0.0007
2103.00,0.0006
2102.00,0.0006
2101.00,0.0006
2100.00,0.0006
2099.00,0.0005
2098.00,0.0004
2097.00,0.0003
2096.00,0.0003
2095.00,0.0003
2094.00,0.0003
2093.00,0.0004
2092.00,0.0005
2091.00,0.0006
2090.00,0.0007
2089.00,0.0007
2088.00,0.0007
2087.00,0.0007
2086.00,0.0007
2085.00,0.0007
2084.00,0.0007
2083.00,0.0007
2082.00,0.0007
2081.00,0.0007
2080.00,0.0008
2079.00,0.0008
2078.00,0.0008
2077.00,0.0008
2076.00,0.0008
2075.00,0.0009
2074.00,0.0010
2073.00,0.0010
2072.00,0.0010
2071.00,0.0010
2070.00,0.0009
2069.00,0.0009
2068.00,0.0008
2067.00,0.0007
2066.00,0.0007
2065.00,0.0007
2064.00,0.0008
2063.00,0.0008
2062.00,0.0007
2061.00,0.0006
2060.00,0.0004
2059.00,0.0004
2058.00,0.0005
2057.00,0.0006
2056.00,0.0007
2055.00,0.0007
2054.00,0.0008
2053.00,0.0010
2052.00,0.0012
2051.00,0.0013
2050.00,0.0012
2049.00,0.0010
2048.00,0.0008
2047.00,0.0007
2046.00,0.0007
2045.00,0.0007
2044.00,0.0007
2043.00,0.0006
2042.00,0.0005
2041.00,0.0005
2040.00,0.0005
2039.00,0.0006
2038.00,0.0007
2037.00,0.0007
2036.00,0.0008
2035.00,0.0008
2034.00,0.0008
2033.00,0.0008
2032.00,0.0007
2031.00,0.0006
2030.00,0.0004
2029.00,0.0003
2028.00,0.0003
2027.00,0.0002
2026.00,0.0002
2025.00,0.0002
2024.00,0.0002
2023.00,0.0001
2022.00,0.0001
2021.00,0.0002
2020.00,0.0002
2019.00,0.0003
2018.00,0.0004
2017.00,0.0004
2016.00,0.0004
2015.00,0.0004
2014.00,0.0005
2013.00,0.0005
2012.00,0.0005
2011.00,0.0003
2010.00,0.0002
2009.00,0.0001
2008.00,0.0000
2007.00,0.0000
2006.00,0.0000
2005.00,0.0000
2004.00,0.0000
2003.00,0.0001
2002.00,0.0002
2001.00,0.0003
2000.00,0.0004
1999.00,0.0004
1998.00,0.0005
1997.00,0.0006
1996.00,0.0007
1995.00,0.0008
1994.00,0.0010
1993.00,0.0011
1992.00,0.0012
1991.00,0.0013
1990.00,0.0013
1989.00,0.0012
1988.00,0.0012
1987.00,0.0011
1986.00,0.0011
1985.00,0.0011
1984.00,0.0012
1983.00,0.0014
1982.00,0.0016
1981.00,0.0017
1980.00,0.0016
1979.00,0.0013
1978.00,0.0009
1977.00,0.0005
1976.00,0.0003
1975.00,0.0002
1974.00,0.0003
1973.00,0.0003
1972.00,0.0004
1971.00,0.0005
1970.00,0.0006
1969.00,0.0008
1968.00,0.0010
1967.00,0.0012
1966.00,0.0012
1965.00,0.0011
1964.00,0.0010
1963.00,0.0009
1962.00,0.0009
1961.00,0.0008
1960.00,0.0008
1959.00,0.0009
1958.00,0.0010
1957.00,0.0011
1956.00,0.0013
1955.00,0.0014
1954.00,0.0015
1953.00,0.0016
1952.00,0.0016
1951.00,0.0017
1950.00,0.0017
1949.00,0.0017
1948.00,0.0018
1947.00,0.0019
1946.00,0.0021
1945.00,0.0023
1944.00,0.0025
1943.00,0.0026
1942.00,0.0025
1941.00,0.0024
1940.00,0.0023
1939.00,0.0022
1938.00,0.0021
1937.00,0.0020
1936.00,0.0019
1935.00,0.0017
1934.00,0.0015
1933.00,0.0013
1932.00,0.0012
1931.00,0.0011
1930.00,0.0011
1929.00,0.0010
1928.00,0.0009
1927.00,0.0009
1926.00,0.0009
1925.00,0.0009
1924.00,0.0008
1923.00,0.0008
1922.00,0.0008
1921.00,0.0009
1920.00,0.0010
1919.00,0.0010
1918.00,0.0009
1917.00,0.0008
1916.00,0.0007
1915.00,0.0007
1914.00,0.0007
1913.00,0.0007
1912.00,0.0006
1911.00,0.0006
1910.00,0.0007
1909.00,0.0007
1908.00,0.0007
1907.00,0.0007
1906.00,0.0007
1905.00,0.0007
1904.00,0.0007
1903.00,0.0007
1902.00,0.0007
1901.00,0.0008
1900.00,0.0008
1899.00,0.0009
1898.00,0.0010
1897.00,0.0010
1896.00,0.0010
1895.00,0.0011
1894.00,0.0011
1893.00,0.0012
1892.00,0.0012
1891.00,0.0013
1890.00,0.0014
1889.00,0.0014
1888.00,0.0015
1887.00,0.0016
1886.00,0.0016
1885.00,0.0017
1884.00,0.0017
1883.00,0.0018
1882.00,0.0019
1881.00,0.0019
1880.00,0.0019
1879.00,0.0019
1878.00,0.0019
1877.00,0.0019
1876.00,0.0020
1875.00,0.0020
1874.00,0.0021
1873.00,0.0021
1872.00,0.0021
1871.00,0.0021
1870.00,0.0022
1869.00,0.0022
1868.00,0.0022
1867.00,0.0021
1866.00,0.0021
1865.00,0.0020
1864.00,0.0019
1863.00,0.0018
1862.00,0.0017
1861.00,0.0016
1860.00,0.0015
1859.00,0.0014
1858.00,0.0013
1857.00,0.0012
1856.00,0.0011
1855.00,0.0010
1854.00,0.0010
1853.00,0.0009
1852.00,0.0009
1851.00,0.0008
1850.00,0.0008
1849.00,0.0008
1848.00,0.0008
1847.00,0.0009
1846.00,0.0009
1845.00,0.0010
1844.00,0.0010
1843.00,0.0009
1842.00,0.0009
1841.00,0.0009
1840.00,0.0009
1839.00,0.0009
1838.00,0.0008
1837.00,0.0008
1836.00,0.0008
1835.00,0.0008
1834.00,0.0009
1833.00,0.0009
1832.00,0.0009
1831.00,0.0009
1830.00,0.0009
1829.00,0.0009
1828.00,0.0010
1827.00,0.0011
1826.00,0.0012
1825.00,0.0013
1824.00,0.0013
1823.00,0.0013
1822.00,0.0014
1821.00,0.0014
1820.00,0.0014
1819.00,0.0014
1818.00,0.0014
1817.00,0.0015
1816.00,0.0015
1815.00,0.0016
1814.00,0.0017
1813.00,0.0019
1812.00,0.0019
1811.00,0.0020
1810.00,0.0021
1809.00,0.0022
1808.00,0.0022
1807.00,0.0022
1806.00,0.0023
1805.00,0.0024
1804.00,0.0024
1803.00,0.0025
1802.00,0.0025
1801.00,0.0026
1800.00,0.0025
1799.00,0.0025
1798.00,0.0025
1797.00,0.0025
1796.00,0.0024
1795.00,0.0023
1794.00,0.0022
1793.00,0.0021
1792.00,0.0020
1791.00,0.0018
1790.00,0.0017
1789.00,0.0017
1788.00,0.0016
1787.00,0.0015
1786.00,0.0015
1785.00,0.0014
1784.00,0.0014
1783.00,0.0013
1782.00,0.0013
1781.00,0.0013
1780.00,0.0013
1779.00,0.0014
1778.00,0.0014
1777.00,0.0014
1776.00,0.0014
1775.00,0.0014
1774.00,0.0014
1773.00,0.0014
1772.00,0.0014
1771.00,0.0014
1770.00,0.0015
1769.00,0.0016
1768.00,0.0016
1767.00,0.0016
1766.00,0.0015
1765.00,0.0014
1764.00,0.0014
1763.00,0.0014
1762.00,0.0015
1761.00,0.0016
1760.00,0.0017
1759.00,0.0018
1758.00,0.0019
1757.00,0.0020
1756.00,0.0021
1755.00,0.0022
1754.00,0.0023
1753.00,0.0025
1752.00,0.0028
1751.00,0.0029
1750.00,0.0029
1749.00,0.0029
1748.00,0.0029
1747.00,0.0030
1746.00,0.0029
1745.00,0.0030
1744.00,0.0030
1743.00,0.0030
1742.00,0.0030
1741.00,0.0030
1740.00,0.0030
1739.00,0.0030
1738.00,0.0030
1737.00,0.0031
1736.00,0.0033
1735.00,0.0034
1734.00,0.0034
1733.00,0.0033
1732.00,0.0032
1731.00,0.0031
1730.00,0.0029
1729.00,0.0028
1728.00,0.0027
1727.00,0.0026
1726.00,0.0025
1725.00,0.0025
1724.00,0.0025
1723.00,0.0025
1722.00,0.0024
1721.00,0.0024
1720.00,0.0024
1719.00,0.0024
1718.00,0.0024
1717.00,0.0025
1716.00,0.0024
1715.00,0.0024
1714.00,0.0024
1713.00,0.0024
1712.00,0.0023
1711.00,0.0023
1710.00,0.0022
1709.00,0.0022
1708.00,0.0022
1707.00,0.0021
1706.00,0.0021
1705.00,0.0020
1704.00,0.0020
1703.00,0.0022
1702.00,0.0025
1701.00,0.0027
1700.00,0.0027
1699.00,0.0026
1698.00,0.0026
1697.00,0.0026
1696.00,0.0025
1695.00,0.0024
1694.00,0.0024
1693.00,0.0024
1692.00,0.0024
1691.00,0.0025
1690.00,0.0025
1689.00,0.0025
1688.00,0.0025
1687.00,0.0026
1686.00,0.0027
1685.00,0.0027
1684.00,0.0027
1683.00,0.0028
1682.00,0.0028
1681.00,0.0029
1680.00,0.0029
1679.00,0.0029
1678.00,0.0030
1677.00,0.0031
1676.00,0.0032
1675.00,0.0033
1674.00,0.0033
1673.00,0.0033
1672.00,0.0034
1671.00,0.0034
1670.00,0.0034
1669.00,0.0034
1668.00,0.0034
1667.00,0.0034
1666.00,0.0034
1665.00,0.0034
1664.00,0.0035
1663.00,0.0035
1662.00,0.0035
1661.00,0.0035
1660.00,0.0035
1659.00,0.0035
1658.00,0.0035
1657.00,0.0033
1656.00,0.0033
1655.00,0.0033
1654.00,0.0032
1653.00,0.0030
1652.00,0.0030
1651.00,0.0030
1650.00,0.0030
1649.00,0.0030
1648.00,0.0030
1647.00,0.0030
1646.00,0.0030
1645.00,0.0030
1644.00,0.0029
1643.00,0.0028
1642.00,0.0028
1641.00,0.0028
1640.00,0.0027
1639.00,0.0027
1638.00,0.0028
1637.00,0.0028
1636.00,0.0028
1635.00,0.0027
1634.00,0.0027
1633.00,0.0026
1632.00,0.0025
1631.00,0.0025
1630.00,0.0025
1629.00,0.0025
1628.00,0.0025
1627.00,0.0025
1626.00,0.0025
1625.00,0.0026
1624.00,0.0026
1623.00,0.0026
1622.00,0.0026
1621.00,0.0026
1620.00,0.0026
1619.00,0.0026
1618.00,0.0027
1617.00,0.0027
1616.00,0.0028
1615.00,0.0030
1614.00,0.0032
1613.00,0.0034
1612.00,0.0037
1611.00,0.0041
1610.00,0.0047
1609.00,0.0054
1608.00,0.0063
1607.00,0.0076
1606.00,0.0090
1605.00,0.0106
1604.00,0.0123
1603.00,0.0138
1602.00,0.0148
1601.00,0.0152
1600.00,0.0148
1599.00,0.0138
1598.00,0.0123
1597.00,0.0107
1596.00,0.0092
1595.00,0.0080
1594.00,0.0070
1593.00,0.0063
1592.00,0.0057
1591.00,0.0052
1590.00,0.0049
1589.00,0.0047
1588.00,0.0047
1587.00,0.0050
1586.00,0.0055
1585.00,0.0059
1584.00,0.0064
1583.00,0.0065
1582.00,0.0062
1581.00,0.0056
1580.00,0.0049
1579.00,0.0042
1578.00,0.0036
1577.00,0.0031
1576.00,0.0028
1575.00,0.0026
1574.00,0.0024
1573.00,0.0023
1572.00,0.0023
1571.00,0.0022
1570.00,0.0021
1569.00,0.0021
1568.00,0.0021
1567.00,0.0021
1566.00,0.0021
1565.00,0.0020
1564.00,0.0019
1563.00,0.0019
1562.00,0.0018
1561.00,0.0018
1560.00,0.0019
1559.00,0.0021
1558.00,0.0023
1557.00,0.0023
1556.00,0.0023
1555.00,0.0024
1554.00,0.0025
1553.00,0.0025
1552.00,0.0026
1551.00,0.0026
1550.00,0.0027
1549.00,0.0028
1548.00,0.0029
1547.00,0.0030
1546.00,0.0031
1545.00,0.0032
1544.00,0.0032
1543.00,0.0032
1542.00,0.0032
1541.00,0.0031
1540.00,0.0030
1539.00,0.0030
1538.00,0.0030
1537.00,0.0029
1536.00,0.0028
1535.00,0.0028
1534.00,0.0027
1533.00,0.0026
1532.00,0.0025
1531.00,0.0025
1530.00,0.0025
1529.00,0.0025
1528.00,0.0024
1527.00,0.0024
1526.00,0.0024
1525.00,0.0024
1524.00,0.0024
1523.00,0.0024
1522.00,0.0024
1521.00,0.0024
1520.00,0.0024
1519.00,0.0024
1518.00,0.0025
1517.00,0.0026
1516.00,0.0026
1515.00,0.0027
1514.00,0.0027
1513.00,0.0028
1512.00,0.0028
1511.00,0.0028
1510.00,0.0029
1509.00,0.0031
1508.00,0.0032
1507.00,0.0033
1506.00,0.0035
1505.00,0.0037
1504.00,0.0039
1503.00,0.0042
1502.00,0.0047
1501.00,0.0055
1500.00,0.0066
1499.00,0.0084
1498.00,0.0113
1497.00,0.0160
1496.00,0.0220
1495.00,0.0283
1494.00,0.0335
1493.00,0.0367
1492.00,0.0371
1491.00,0.0341
1490.00,0.0285
1489.00,0.0223
1488.00,0.0173
1487.00,0.0138
1486.00,0.0113
1485.00,0.0093
1484.00,0.0079
1483.00,0.0067
1482.00,0.0057
1481.00,0.0050
1480.00,0.0045
1479.00,0.0041
1478.00,0.0038
1477.00,0.0035
1476.00,0.0032
1475.00,0.0030
1474.00,0.0029
1473.00,0.0028
1472.00,0.0028
1471.00,0.0029
1470.00,0.0030
1469.00,0.0032
1468.00,0.0033
1467.00,0.0033
1466.00,0.0034
1465.00,0.0034
1464.00,0.0035
1463.00,0.0038
1462.00,0.0041
1461.00,0.0047
1460.00,0.0056
1459.00,0.0069
1458.00,0.0096
1457.00,0.0145
1456.00,0.0207
1455.00,0.0265
1454.00,0.0315
1453.00,0.0352
1452.00,0.0372
1451.00,0.0370
1450.00,0.0351
1449.00,0.0323
1448.00,0.0293
1447.00,0.0266
1446.00,0.0244
1445.00,0.0226
1444.00,0.0208
1443.00,0.0191
1442.00,0.0175
1441.00,0.0161
1440.00,0.0150
1439.00,0.0139
1438.00,0.0129
1437.00,0.0117
1436.00,0.0104
1435.00,0.0092
1434.00,0.0084
1433.00,0.0077
1432.00,0.0070
1431.00,0.0063
1430.00,0.0057
1429.00,0.0053
1428.00,0.0049
1427.00,0.0046
1426.00,0.0044
1425.00,0.0042
1424.00,0.0040
1423.00,0.0038
1422.00,0.0036
1421.00,0.0035
1420.00,0.0033
1419.00,0.0031
1418.00,0.0030
1417.00,0.0028
1416.00,0.0027
1415.00,0.0024
1414.00,0.0022
1413.00,0.0020
1412.00,0.0018
1411.00,0.0016
1410.00,0.0014
1409.00,0.0013
1408.00,0.0011
1407.00,0.0010
1406.00,0.0008
1405.00,0.0006
1404.00,0.0004
1403.00,0.0002
1402.00,-0.0001
1401.00,-0.0003
1400.00,-0.0005
1399.00,-0.0008
1398.00,-0.0010
1397.00,-0.0012
1396.00,-0.0014
1395.00,-0.0016
1394.00,-0.0017
1393.00,-0.0016
1392.00,-0.0014
1391.00,-0.0012
1390.00,-0.0010
1389.00,-0.0008
1388.00,-0.0006
1387.00,-0.0003
1386.00,-0.0001
1385.00,0.0001
1384.00,0.0003
1383.00,0.0005
1382.00,0.0007
1381.00,0.0010
1380.00,0.0014
1379.00,0.0018
1378.00,0.0023
1377.00,0.0027
1376.00,0.0032
1375.00,0.0035
1374.00,0.0038
1373.00,0.0041
1372.00,0.0044
1371.00,0.0046
1370.00,0.0048
1369.00,0.0050
1368.00,0.0052
1367.00,0.0053
1366.00,0.0054
1365.00,0.0054
1364.00,0.0055
1363.00,0.0055
1362.00,0.0055
1361.00,0.0055
1360.00,0.0055
1359.00,0.0054
1358.00,0.0054
1357.00,0.0053
1356.00,0.0053
1355.00,0.0053
1354.00,0.0053
1353.00,0.0054
1352.00,0.0054
1351.00,0.0055
1350.00,0.0055
1349.00,0.0056
1348.00,0.0056
1347.00,0.0055
1346.00,0.0055
1345.00,0.0054
1344.00,0.0053
1343.00,0.0053
1342.00,0.0052
1341.00,0.0052
1340.00,0.0052
1339.00,0.0052
1338.00,0.0052
1337.00,0.0053
1336.00,0.0054
1335.00,0.0056
1334.00,0.0058
1333.00,0.0060
1332.00,0.0062
1331.00,0.0064
1330.00,0.0066
1329.00,0.0067
1328.00,0.0068
1327.00,0.0068
1326.00,0.0068
1325.00,0.0068
1324.00,0.0067
1323.00,0.0067
1322.00,0.0066
1321.00,0.0066
1320.00,0.0066
1319.00,0.0067
1318.00,0.0068
1317.00,0.0069
1316.00,0.0070
1315.00,0.0071
1314.00,0.0072
1313.00,0.0073
1312.00,0.0073
1311.00,0.0073
1310.00,0.0072
1309.00,0.0071
1308.00,0.0070
1307.00,0.0069
1306.00,0.0068
1305.00,0.0067
1304.00,0.0065
1303.00,0.0064
1302.00,0.0063
1301.00,0.0062
1300.00,0.0061
1299.00,0.0061
1298.00,0.0060
1297.00,0.0060
1296.00,0.0059
1295.00,0.0059
1294.00,0.0059
1293.00,0.0059
1292.00,0.0058
1291.00,0.0058
1290.00,0.0057
1289.00,0.0056
1288.00,0.0055
1287.00,0.0054
1286.00,0.0053
1285.00,0.0052
1284.00,0.0052
1283.00,0.0051
1282.00,0.0050
1281.00,0.0049
1280.00,0.0048
1279.00,0.0047
1278.00,0.0045
1277.00,0.0044
1276.00,0.0041
1275.00,0.0039
1274.00,0.0036
1273.00,0.0033
1272.00,0.0030
1271.00,0.0028
1270.00,0.0026
1269.00,0.0024
1268.00,0.0022
1267.00,0.0020
1266.00,0.0018
1265.00,0.0017
1264.00,0.0016
1263.00,0.0015
1262.00,0.0014
1261.00,0.0013
1260.00,0.0013
1259.00,0.0012
1258.00,0.0011
1257.00,0.0010
1256.00,0.0009
1255.00,0.0008
1254.00,0.0008
1253.00,0.0007
1252.00,0.0007
1251.00,0.0008
1250.00,0.0009
1249.00,0.0010
1248.00,0.0012
1247.00,0.0013
1246.00,0.0014
1245.00,0.0015
1244.00,0.0016
1243.00,0.0016
1242.00,0.0016
1241.00,0.0016
1240.00,0.0016
1239.00,0.0016
1238.00,0.0016
1237.00,0.0017
1236.00,0.0018
1235.00,0.0019
1234.00,0.0020
1233.00,0.0021
1232.00,0.0022
1231.00,0.0024
1230.00,0.0025
1229.00,0.0026
1228.00,0.0028
1227.00,0.0029
1226.00,0.0030
1225.00,0.0031
1224.00,0.0032
1223.00,0.0033
1222.00,0.0034
1221.00,0.0035
1220.00,0.0035
1219.00,0.0036
1218.00,0.0036
1217.00,0.0037
1216.00,0.0038
1215.00,0.0039
1214.00,0.0040
1213.00,0.0041
1212.00,0.0042
1211.00,0.0043
1210.00,0.0044
1209.00,0.0045
1208.00,0.0046
1207.00,0.0048
1206.00,0.0049
1205.00,0.0051
1204.00,0.0052
1203.00,0.0054
1202.00,0.0055
1201.00,0.0056
1200.00,0.0058
1199.00,0.0059
1198.00,0.0059
1197.00,0.0060
1196.00,0.0059
1195.00,0.0059
1194.00,0.0058
1193.00,0.0058
1192.00,0.0058
1191.00,0.0057
1190.00,0.0056
1189.00,0.0056
1188.00,0.0056
1187.00,0.0056
1186.00,0.0058
1185.00,0.0061
1184.00,0.0064
1183.00,0.0066
1182.00,0.0068
1181.00,0.0067
1180.00,0.0064
1179.00,0.0058
1178.00,0.0052
1177.00,0.0044
1176.00,0.0038
1175.00,0.0032
1174.00,0.0028
1173.00,0.0024
1172.00,0.0021
1171.00,0.0019
1170.00,0.0017
1169.00,0.0015
1168.00,0.0014
1167.00,0.0013
1166.00,0.0012
1165.00,0.0011
1164.00,0.0011
1163.00,0.0011
1162.00,0.0013
1161.00,0.0015
1160.00,0.0018
1159.00,0.0023
1158.00,0.0028
1157.00,0.0033
1156.00,0.0038
1155.00,0.0040
1154.00,0.0040
1153.00,0.0037
1152.00,0.0031
1151.00,0.0024
1150.00,0.0017
1149.00,0.0011
1148.00,0.0007
1147.00,0.0004
1146.00,0.0002
1145.00,0.0001
1144.00,-0.0000
1143.00,-0.0001
1142.00,-0.0001
1141.00,-0.0002
1140.00,-0.0002
1139.00,-0.0002
1138.00,-0.0002
1137.00,-0.0001
1136.00,-0.0000
1135.00,0.0000
1134.00,0.0001
1133.00,0.0002
1132.00,0.0003
1131.00,0.0004
1130.00,0.0005
1129.00,0.0006
1128.00,0.0007
1127.00,0.0009
1126.00,0.0010
1125.00,0.0012
1124.00,0.0014
1123.00,0.0015
1122.00,0.0017
1121.00,0.0020
1120.00,0.0022
1119.00,0.0025
1118.00,0.0028
1117.00,0.0030
1116.00,0.0033
1115.00,0.0035
1114.00,0.0037
1113.00,0.0039
1112.00,0.0040
1111.00,0.0042
1110.00,0.0042
1109.00,0.0042
1108.00,0.0042
1107.00,0.0042
1106.00,0.0042
1105.00,0.0042
1104.00,0.0042
1103.00,0.0042
1102.00,0.0041
1101.00,0.0041
1100.00,0.0041
1099.00,0.0040
1098.00,0.0040
1097.00,0.0040
1096.00,0.0040
1095.00,0.0039
1094.00,0.0039
1093.00,0.0038
1092.00,0.0038
1091.00,0.0038
1090.00,0.0038
1089.00,0.0038
1088.00,0.0039
1087.00,0.0040
1086.00,0.0041
1085.00,0.0043
1084.00,0.0046
1083.00,0.0048
1082.00,0.0051
1081.00,0.0053
1080.00,0.0056
1079.00,0.0059
1078.00,0.0063
1077.00,0.0066
1076.00,0.0070
1075.00,0.0075
1074.00,0.0080
1073.00,0.0085
1072.00,0.0090
1071.00,0.0094
1070.00,0.0099
1069.00,0.0101
1068.00,0.0103
1067.00,0.0103
1066.00,0.0101
1065.00,0.0099
1064.00,0.0096
1063.00,0.0092
1062.00,0.0088
1061.00,0.0085
1060.00,0.0083
1059.00,0.0081
1058.00,0.0080
1057.00,0.0079
1056.00,0.0079
1055.00,0.0078
1054.00,0.0078
1053.00,0.0078
1052.00,0.0077
1051.00,0.0077
1050.00,0.0076
1049.00,0.0077
1048.00,0.0077
1047.00,0.0077
1046.00,0.0077
1045.00,0.0077
1044.00,0.0077
1043.00,0.0077
1042.00,0.0078
1041.00,0.0079
1040.00,0.0082
1039.00,0.0086
1038.00,0.0092
1037.00,0.0100
1036.00,0.0111
1035.00,0.0126
1034.00,0.0145
1033.00,0.0165
1032.00,0.0186
1031.00,0.0205
1030.00,0.0222
1029.00,0.0233
1028.00,0.0238
1027.00,0.0235
1026.00,0.0225
1025.00,0.0211
1024.00,0.0196
1023.00,0.0181
1022.00,0.0169
1021.00,0.0158
1020.00,0.0149
1019.00,0.0141
1018.00,0.0134
1017.00,0.0128
1016.00,0.0124
1015.00,0.0119
1014.00,0.0116
1013.00,0.0112
1012.00,0.0109
1011.00,0.0107
1010.00,0.0106
1009.00,0.0105
1008.00,0.0105
1007.00,0.0107
1006.00,0.0109
1005.00,0.0112
1004.00,0.0113
1003.00,0.0113
1002.00,0.0111
1001.00,0.0107
1000.00,0.0102
999.00,0.0097
998.00,0.0093
997.00,0.0090
996.00,0.0088
995.00,0.0086
994.00,0.0086
993.00,0.0085
992.00,0.0085
991.00,0.0086
990.00,0.0087
989.00,0.0088
988.00,0.0089
987.00,0.0091
986.00,0.0092
985.00,0.0094
984.00,0.0095
983.00,0.0096
982.00,0.0097
981.00,0.0096
980.00,0.0095
979.00,0.0092
978.00,0.0088
977.00,0.0084
976.00,0.0079
975.00,0.0074
974.00,0.0069
973.00,0.0065
972.00,0.0062
971.00,0.0060
970.00,0.0059
969.00,0.0059
968.00,0.0060
967.00,0.0061
966.00,0.0063
965.00,0.0064
964.00,0.0064
963.00,0.0063
962.00,0.0060
961.00,0.0056
960.00,0.0051
959.00,0.0044
958.00,0.0038
957.00,0.0033
956.00,0.0030
955.00,0.0028
954.00,0.0026
953.00,0.0025
952.00,0.0025
951.00,0.0027
950.00,0.0029
949.00,0.0031
948.00,0.0034
947.00,0.0036
946.00,0.0037
945.00,0.0039
944.00,0.0040
943.00,0.0041
942.00,0.0042
941.00,0.0043
940.00,0.0043
939.00,0.0042
938.00,0.0042
937.00,0.0041
936.00,0.0041
935.00,0.0042
934.00,0.0042
933.00,0.0042
932.00,0.0043
931.00,0.0044
930.00,0.0044
929.00,0.0045
928.00,0.0047
927.00,0.0048
926.00,0.0050
925.00,0.0052
924.00,0.0054
923.00,0.0057
922.00,0.0059
921.00,0.0062
920.00,0.0065
919.00,0.0068
918.00,0.0072
917.00,0.0078
916.00,0.0084
915.00,0.0090
914.00,0.0098
913.00,0.0107
912.00,0.0118
911.00,0.0128
910.00,0.0138
909.00,0.0147
908.00,0.0154
907.00,0.0158
906.00,0.0158
905.00,0.0155
904.00,0.0149
903.00,0.0140
902.00,0.0130
901.00,0.0120
900.00,0.0109
899.00,0.0099
898.00,0.0090
897.00,0.0083
896.00,0.0077
895.00,0.0073
894.00,0.0069
893.00,0.0066
892.00,0.0064
891.00,0.0062
890.00,0.0060
889.00,0.0059
888.00,0.0057
887.00,0.0055
886.00,0.0054
885.00,0.0052
884.00,0.0051
883.00,0.0050
882.00,0.0050
881.00,0.0049
880.00,0.0049
879.00,0.0048
878.00,0.0047
877.00,0.0046
876.00,0.0045
875.00,0.0045
874.00,0.0045
873.00,0.0044
872.00,0.0044
871.00,0.0044
870.00,0.0044
869.00,0.0044
868.00,0.0044
867.00,0.0043
866.00,0.0043
865.00,0.0043
864.00,0.0043
863.00,0.0043
862.00,0.0043
861.00,0.0043
860.00,0.0044
859.00,0.0044
858.00,0.0045
857.00,0.0045
856.00,0.0046
855.00,0.0046
854.00,0.0047
853.00,0.0048
852.00,0.0050
851.00,0.0052
850.00,0.0056
849.00,0.0060
848.00,0.0065
847.00,0.0069
846.00,0.0073
845.00,0.0076
844.00,0.0079
843.00,0.0080
842.00,0.0081
841.00,0.0080
840.00,0.0078
839.00,0.0075
838.00,0.0071
837.00,0.0066
836.00,0.0061
835.00,0.0055
834.00,0.0050
833.00,0.0045
832.00,0.0041
831.00,0.0038
830.00,0.0036
829.00,0.0035
828.00,0.0034
827.00,0.0033
826.00,0.0033
825.00,0.0033
824.00,0.0033
823.00,0.0033
822.00,0.0033
821.00,0.0033
820.00,0.0032
819.00,0.0032
818.00,0.0031
817.00,0.0031
816.00,0.0031
815.00,0.0032
814.00,0.0033
813.00,0.0033
812.00,0.0034
811.00,0.0034
810.00,0.0035
809.00,0.0036
808.00,0.0037
807.00,0.0037
806.00,0.0038
805.00,0.0038
804.00,0.0038
803.00,0.0039
802.00,0.0041
801.00,0.0043
800.00,0.0045
799.00,0.0047
798.00,0.0049
797.00,0.0051
796.00,0.0054
795.00,0.0056
794.00,0.0059
793.00,0.0062
792.00,0.0066
791.00,0.0071
790.00,0.0076
789.00,0.0082
788.00,0.0087
787.00,0.0092
786.00,0.0097
785.00,0.0102
784.00,0.0108
783.00,0.0114
782.00,0.0122
781.00,0.0130
780.00,0.0140
779.00,0.0151
778.00,0.0164
777.00,0.0178
776.00,0.0194
775.00,0.0212
774.00,0.0231
773.00,0.0251
772.00,0.0272
771.00,0.0296
770.00,0.0321
769.00,0.0346
768.00,0.0372
767.00,0.0396
766.00,0.0420
765.00,0.0443
764.00,0.0467
763.00,0.0492
762.00,0.0518
761.00,0.0543
760.00,0.0568
759.00,0.0591
758.00,0.0611
757.00,0.0627
756.00,0.0637
755.00,0.0641
754.00,0.0642
753.00,0.0640
752.00,0.0637
751.00,0.0634
750.00,0.0631
749.00,0.0630
748.00,0.0626
747.00,0.0618
746.00,0.0601
745.00,0.0574
744.00,0.0538
743.00,0.0497
742.00,0.0454
741.00,0.0412
740.00,0.0373
739.00,0.0337
738.00,0.0304
737.00,0.0274
736.00,0.0245
735.00,0.0218
734.00,0.0191
733.00,0.0167
732.00,0.0146
731.00,0.0128
730.00,0.0115
729.00,0.0105
728.00,0.0098
727.00,0.0092
726.00,0.0088
725.00,0.0085
724.00,0.0083
723.00,0.0082
722.00,0.0081
721.00,0.0082
720.00,0.0083
719.00,0.0085
718.00,0.0088
717.00,0.0092
716.00,0.0097
715.00,0.0105
714.00,0.0115
713.00,0.0130
712.00,0.0150
711.00,0.0177
710.00,0.0215
709.00,0.0265
708.00,0.0328
707.00,0.0407
706.00,0.0502
705.00,0.0613
704.00,0.0739
703.00,0.0880
702.00,0.1031
701.00,0.1191
700.00,0.1354
699.00,0.1516
698.00,0.1671
697.00,0.1807
696.00,0.1907
695.00,0.1945
694.00,0.1905
693.00,0.1786
692.00,0.1610
691.00,0.1411
690.00,0.1218
689.00,0.1049
688.00,0.0908
687.00,0.0796
686.00,0.0707
685.00,0.0636
684.00,0.0578
683.00,0.0529
682.00,0.0488
681.00,0.0452
680.00,0.0422
679.00,0.0396
678.00,0.0373
677.00,0.0353
676.00,0.0336
675.00,0.0322
674.00,0.0310
673.00,0.0299
672.00,0.0289
671.00,0.0281
670.00,0.0272
669.00,0.0262
668.00,0.0251
667.00,0.0241
666.00,0.0233
665.00,0.0226
664.00,0.0219
663.00,0.0211
662.00,0.0203
661.00,0.0194
660.00,0.0186
659.00,0.0178
658.00,0.0172
657.00,0.0165
656.00,0.0159
655.00,0.0152
654.00,0.0146
653.00,0.0141
652.00,0.0136
651.00,0.0132
650.00,0.0128
649.00,0.0125
648.00,0.0121
647.00,0.0117
646.00,0.0114
645.00,0.0111
644.00,0.0109
643.00,0.0108
642.00,0.0107
641.00,0.0108
640.00,0.0109
639.00,0.0110
638.00,0.0112
637.00,0.0114
636.00,0.0116
635.00,0.0119
634.00,0.0122
633.00,0.0125
632.00,0.0128
631.00,0.0130
630.00,0.0132
629.00,0.0134
628.00,0.0135
627.00,0.0137
626.00,0.0139
625.00,0.0142
624.00,0.0144
623.00,0.0147
622.00,0.0150
621.00,0.0151
620.00,0.0150
619.00,0.0147
618.00,0.0142
617.00,0.0137
616.00,0.0135
615.00,0.0133
614.00,0.0131
613.00,0.0130
612.00,0.0128
611.00,0.0126
610.00,0.0125
609.00,0.0123
608.00,0.0122
607.00,0.0121
606.00,0.0120
605.00,0.0120
604.00,0.0119
603.00,0.0120
602.00,0.0120
601.00,0.0121
600.00,0.0122
599.00,0.0123
598.00,0.0124
597.00,0.0125
596.00,0.0127
595.00,0.0129
594.00,0.0132
593.00,0.0134
592.00,0.0136
591.00,0.0137
590.00,0.0138
589.00,0.0140
588.00,0.0143
587.00,0.0146
586.00,0.0149
585.00,0.0153
584.00,0.0155
583.00,0.0159
582.00,0.0163
581.00,0.0168
580.00,0.0174
579.00,0.0181
578.00,0.0189
577.00,0.0197
576.00,0.0205
575.00,0.0212
574.00,0.0220
573.00,0.0229
572.00,0.0239
571.00,0.0248
570.00,0.0255
569.00,0.0264
568.00,0.0272
567.00,0.0282
566.00,0.0291
565.00,0.0301
564.00,0.0312
563.00,0.0321
562.00,0.0330
561.00,0.0338
560.00,0.0346
559.00,0.0355
558.00,0.0364
557.00,0.0372
556.00,0.0381
555.00,0.0390
554.00,0.0399
553.00,0.0410
552.00,0.0423
551.00,0.0438
550.00,0.0453
549.00,0.0468
548.00,0.0486
547.00,0.0504
546.00,0.0524
545.00,0.0545
544.00,0.0567
543.00,0.0590
542.00,0.0611
541.00,0.0632
540.00,0.0649
539.00,0.0661
538.00,0.0666
537.00,0.0663
536.00,0.0652
535.00,0.0634
534.00,0.0608
533.00,0.0578
532.00,0.0546
531.00,0.0512
530.00,0.0477
529.00,0.0445
528.00,0.0415
527.00,0.0388
526.00,0.0363
525.00,0.0341
524.00,0.0322
523.00,0.0306
522.00,0.0291
521.00,0.0278
520.00,0.0266
519.00,0.0256
518.00,0.0246
517.00,0.0237
516.00,0.0230
515.00,0.0224
514.00,0.0219
513.00,0.0214
512.00,0.0209
511.00,0.0203
510.00,0.0197
509.00,0.0190
508.00,0.0183
507.00,0.0176
506.00,0.0171
505.00,0.0167
504.00,0.0163
503.00,0.0159
502.00,0.0154
501.00,0.0150
500.00,0.0145
499.00,0.0142
498.00,0.0140
497.00,0.0138
496.00,0.0136
495.00,0.0133
494.00,0.0131
493.00,0.0128
492.00,0.0125
491.00,0.0122
490.00,0.0121
489.00,0.0119
488.00,0.0118
487.00,0.0116
486.00,0.0115
485.00,0.0114
484.00,0.0113
483.00,0.0112
482.00,0.0112
481.00,0.0110
480.00,0.0108
479.00,0.0105
478.00,0.0103
477.00,0.0102
476.00,0.0103
475.00,0.0105
474.00,0.0106
473.00,0.0106
472.00,0.0106
471.00,0.0104
470.00,0.0101
469.00,0.0100
468.00,0.0101
467.00,0.0101
466.00,0.0099
465.00,0.0096
464.00,0.0093
463.00,0.0092
462.00,0.0093
461.00,0.0094
460.00,0.0095
459.00,0.0095
458.00,0.0097
457.00,0.0097
456.00,0.0093
455.00,0.0088
454.00,0.0084
453.00,0.0081
452.00,0.0079
451.00,0.0077
450.00,0.0077
449.00,0.0079
448.00,0.0082
447.00,0.0085
446.00,0.0088
445.00,0.0088
444.00,0.0088
443.00,0.0086
442.00,0.0084
441.00,0.0084
440.00,0.0084
439.00,0.0084
438.00,0.0084
437.00,0.0082
436.00,0.0080
435.00,0.0079
434.00,0.0079
433.00,0.0078
432.00,0.0077
431.00,0.0075
430.00,0.0073
429.00,0.0073
428.00,0.0071
427.00,0.0070
426.00,0.0070
425.00,0.0071
424.00,0.0073
423.00,0.0075
422.00,0.0077
421.00,0.0080
420.00,0.0084
419.00,0.0086
418.00,0.0083
417.00,0.0075
416.00,0.0067
415.00,0.0063
414.00,0.0061
413.00,0.0060
412.00,0.0059
411.00,0.0059
410.00,0.0064
409.00,0.0071
408.00,0.0075
407.00,0.0073
406.00,0.0067
405.00,0.0063
404.00,0.0063
403.00,0.0068
402.00,0.0073
401.00,0.0073
400.00,0.0068
