Created as New Dataset,Sample 752 By YargerLab Date Sunday, June 29 2025
cm-1,A
4000.00,0.0008
3999.00,0.0008
3998.00,0.0008
3997.00,0.0008
3996.00,0.0008
3995.00,0.0008
3994.00,0.0009
3993.00,0.0009
3992.00,0.0009
3991.00,0.0009
3990.00,0.0009
3989.00,0.0008
3988.00,0.0008
3987.00,0.0008
3986.00,0.0008
3985.00,0.0009
3984.00,0.0009
3983.00,0.0009
3982.00,0.0009
3981.00,0.0009
3980.00,0.0009
3979.00,0.0009
3978.00,0.0009
3977.00,0.0009
3976.00,0.0009
3975.00,0.0009
3974.00,0.0009
3973.00,0.0009
3972.00,0.0009
3971.00,0.0009
3970.00,0.0009
3969.00,0.0009
3968.00,0.0009
3967.00,0.0009
3966.00,0.0009
3965.00,0.0009
3964.00,0.0009
3963.00,0.0009
3962.00,0.0009
3961.00,0.0009
3960.00,0.0009
3959.00,0.0009
3958.00,0.0009
3957.00,0.0009
3956.00,0.0009
3955.00,0.0008
3954.00,0.0008
3953.00,0.0009
3952.00,0.0009
3951.00,0.0010
3950.00,0.0010
3949.00,0.0011
3948.00,0.0012
3947.00,0.0012
3946.00,0.0012
3945.00,0.0011
3944.00,0.0010
3943.00,0.0010
3942.00,0.0009
3941.00,0.0010
3940.00,0.0010
3939.00,0.0010
3938.00,0.0010
3937.00,0.0010
3936.00,0.0010
3935.00,0.0011
3934.00,0.0012
3933.00,0.0012
3932.00,0.0012
3931.00,0.0011
3930.00,0.0010
3929.00,0.0010
3928.00,0.0009
3927.00,0.0009
3926.00,0.0008
3925.00,0.0008
3924.00,0.0009
3923.00,0.0009
3922.00,0.0010
3921.00,0.0011
3920.00,0.0011
3919.00,0.0012
3918.00,0.0012
3917.00,0.0012
3916.00,0.0011
3915.00,0.0010
3914.00,0.0010
3913.00,0.0009
3912.00,0.0009
3911.00,0.0009
3910.00,0.0009
3909.00,0.0009
3908.00,0.0009
3907.00,0.0009
3906.00,0.0010
3905.00,0.0011
3904.00,0.0013
3903.00,0.0014
3902.00,0.0015
3901.00,0.0015
3900.00,0.0014
3899.00,0.0013
3898.00,0.0012
3897.00,0.0011
3896.00,0.0011
3895.00,0.0011
3894.00,0.0010
3893.00,0.0009
3892.00,0.0009
3891.00,0.0010
3890.00,0.0010
3889.00,0.0011
3888.00,0.0013
3887.00,0.0014
3886.00,0.0014
3885.00,0.0013
3884.00,0.0012
3883.00,0.0012
3882.00,0.0013
3881.00,0.0012
3880.00,0.0012
3879.00,0.0011
3878.00,0.0012
3877.00,0.0012
3876.00,0.0012
3875.00,0.0011
3874.00,0.0011
3873.00,0.0011
3872.00,0.0013
3871.00,0.0014
3870.00,0.0015
3869.00,0.0014
3868.00,0.0014
3867.00,0.0015
3866.00,0.0015
3865.00,0.0015
3864.00,0.0013
3863.00,0.0013
3862.00,0.0013
3861.00,0.0014
3860.00,0.0014
3859.00,0.0013
3858.00,0.0011
3857.00,0.0010
3856.00,0.0009
3855.00,0.0010
3854.00,0.0010
3853.00,0.0011
3852.00,0.0012
3851.00,0.0012
3850.00,0.0013
3849.00,0.0013
3848.00,0.0013
3847.00,0.0013
3846.00,0.0012
3845.00,0.0012
3844.00,0.0012
3843.00,0.0012
3842.00,0.0012
3841.00,0.0013
3840.00,0.0013
3839.00,0.0013
3838.00,0.0013
3837.00,0.0013
3836.00,0.0013
3835.00,0.0012
3834.00,0.0012
3833.00,0.0013
3832.00,0.0013
3831.00,0.0012
3830.00,0.0012
3829.00,0.0012
3828.00,0.0012
3827.00,0.0012
3826.00,0.0011
3825.00,0.0012
3824.00,0.0013
3823.00,0.0014
3822.00,0.0014
3821.00,0.0013
3820.00,0.0012
3819.00,0.0013
3818.00,0.0013
3817.00,0.0014
3816.00,0.0013
3815.00,0.0012
3814.00,0.0011
3813.00,0.0010
3812.00,0.0010
3811.00,0.0010
3810.00,0.0010
3809.00,0.0011
3808.00,0.0011
3807.00,0.0012
3806.00,0.0011
3805.00,0.0012
3804.00,0.0012
3803.00,0.0013
3802.00,0.0012
3801.00,0.0012
3800.00,0.0011
3799.00,0.0012
3798.00,0.0013
3797.00,0.0013
3796.00,0.0012
3795.00,0.0012
3794.00,0.0011
3793.00,0.0010
3792.00,0.0010
3791.00,0.0009
3790.00,0.0009
3789.00,0.0009
3788.00,0.0009
3787.00,0.0009
3786.00,0.0009
3785.00,0.0009
3784.00,0.0009
3783.00,0.0010
3782.00,0.0010
3781.00,0.0010
3780.00,0.0010
3779.00,0.0010
3778.00,0.0010
3777.00,0.0011
3776.00,0.0011
3775.00,0.0010
3774.00,0.0010
3773.00,0.0010
3772.00,0.0010
3771.00,0.0011
3770.00,0.0011
3769.00,0.0012
3768.00,0.0012
3767.00,0.0012
3766.00,0.0012
3765.00,0.0012
3764.00,0.0012
3763.00,0.0012
3762.00,0.0013
3761.00,0.0013
3760.00,0.0013
3759.00,0.0013
3758.00,0.0013
3757.00,0.0014
3756.00,0.0014
3755.00,0.0015
3754.00,0.0016
3753.00,0.0017
3752.00,0.0018
3751.00,0.0020
3750.00,0.0021
3749.00,0.0021
3748.00,0.0020
3747.00,0.0020
3746.00,0.0021
3745.00,0.0021
3744.00,0.0020
3743.00,0.0019
3742.00,0.0019
3741.00,0.0019
3740.00,0.0020
3739.00,0.0021
3738.00,0.0022
3737.00,0.0022
3736.00,0.0021
3735.00,0.0020
3734.00,0.0019
3733.00,0.0019
3732.00,0.0019
3731.00,0.0018
3730.00,0.0017
3729.00,0.0016
3728.00,0.0017
3727.00,0.0017
3726.00,0.0016
3725.00,0.0016
3724.00,0.0016
3723.00,0.0015
3722.00,0.0015
3721.00,0.0014
3720.00,0.0014
3719.00,0.0013
3718.00,0.0012
3717.00,0.0012
3716.00,0.0012
3715.00,0.0012
3714.00,0.0013
3713.00,0.0014
3712.00,0.0014
3711.00,0.0014
3710.00,0.0014
3709.00,0.0014
3708.00,0.0014
3707.00,0.0013
3706.00,0.0012
3705.00,0.0012
3704.00,0.0011
3703.00,0.0011
3702.00,0.0010
3701.00,0.0010
3700.00,0.0010
3699.00,0.0010
3698.00,0.0010
3697.00,0.0010
3696.00,0.0010
3695.00,0.0010
3694.00,0.0010
3693.00,0.0010
3692.00,0.0009
3691.00,0.0009
3690.00,0.0009
3689.00,0.0011
3688.00,0.0011
3687.00,0.0010
3686.00,0.0009
3685.00,0.0008
3684.00,0.0008
3683.00,0.0007
3682.00,0.0006
3681.00,0.0005
3680.00,0.0004
3679.00,0.0003
3678.00,0.0003
3677.00,0.0004
3676.00,0.0005
3675.00,0.0004
3674.00,0.0003
3673.00,0.0003
3672.00,0.0003
3671.00,0.0002
3670.00,0.0001
3669.00,-0.0001
3668.00,-0.0002
3667.00,-0.0003
3666.00,-0.0003
3665.00,-0.0005
3664.00,-0.0006
3663.00,-0.0007
3662.00,-0.0007
3661.00,-0.0008
3660.00,-0.0007
3659.00,-0.0007
3658.00,-0.0006
3657.00,-0.0006
3656.00,-0.0005
3655.00,-0.0004
3654.00,-0.0003
3653.00,-0.0002
3652.00,0.0000
3651.00,0.0001
3650.00,0.0002
3649.00,0.0003
3648.00,0.0004
3647.00,0.0003
3646.00,0.0002
3645.00,0.0001
3644.00,0.0001
3643.00,0.0000
3642.00,-0.0000
3641.00,-0.0001
3640.00,-0.0001
3639.00,-0.0001
3638.00,-0.0001
3637.00,-0.0001
3636.00,0.0001
3635.00,0.0002
3634.00,0.0004
3633.00,0.0006
3632.00,0.0009
3631.00,0.0011
3630.00,0.0013
3629.00,0.0014
3628.00,0.0014
3627.00,0.0014
3626.00,0.0015
3625.00,0.0015
3624.00,0.0014
3623.00,0.0014
3622.00,0.0013
3621.00,0.0012
3620.00,0.0012
3619.00,0.0012
3618.00,0.0013
3617.00,0.0015
3616.00,0.0016
3615.00,0.0017
3614.00,0.0017
3613.00,0.0017
3612.00,0.0018
3611.00,0.0018
3610.00,0.0019
3609.00,0.0018
3608.00,0.0017
3607.00,0.0015
3606.00,0.0015
3605.00,0.0015
3604.00,0.0014
3603.00,0.0014
3602.00,0.0013
3601.00,0.0013
3600.00,0.0013
3599.00,0.0014
3598.00,0.0014
3597.00,0.0014
3596.00,0.0014
3595.00,0.0014
3594.00,0.0014
3593.00,0.0014
3592.00,0.0015
3591.00,0.0016
3590.00,0.0017
3589.00,0.0017
3588.00,0.0016
3587.00,0.0015
3586.00,0.0015
3585.00,0.0015
3584.00,0.0015
3583.00,0.0014
3582.00,0.0014
3581.00,0.0013
3580.00,0.0013
3579.00,0.0012
3578.00,0.0012
3577.00,0.0012
3576.00,0.0012
3575.00,0.0012
3574.00,0.0012
3573.00,0.0012
3572.00,0.0013
3571.00,0.0014
3570.00,0.0016
3569.00,0.0017
3568.00,0.0018
3567.00,0.0017
3566.00,0.0017
3565.00,0.0017
3564.00,0.0016
3563.00,0.0016
3562.00,0.0015
3561.00,0.0015
3560.00,0.0014
3559.00,0.0013
3558.00,0.0013
3557.00,0.0013
3556.00,0.0014
3555.00,0.0014
3554.00,0.0014
3553.00,0.0014
3552.00,0.0014
3551.00,0.0014
3550.00,0.0015
3549.00,0.0016
3548.00,0.0017
3547.00,0.0017
3546.00,0.0017
3545.00,0.0016
3544.00,0.0016
3543.00,0.0016
3542.00,0.0015
3541.00,0.0014
3540.00,0.0014
3539.00,0.0013
3538.00,0.0013
3537.00,0.0013
3536.00,0.0014
3535.00,0.0014
3534.00,0.0014
3533.00,0.0014
3532.00,0.0014
3531.00,0.0014
3530.00,0.0014
3529.00,0.0015
3528.00,0.0015
3527.00,0.0016
3526.00,0.0017
3525.00,0.0017
3524.00,0.0017
3523.00,0.0016
3522.00,0.0016
3521.00,0.0015
3520.00,0.0015
3519.00,0.0014
3518.00,0.0014
3517.00,0.0014
3516.00,0.0014
3515.00,0.0014
3514.00,0.0015
3513.00,0.0015
3512.00,0.0015
3511.00,0.0015
3510.00,0.0015
3509.00,0.0015
3508.00,0.0015
3507.00,0.0016
3506.00,0.0016
3505.00,0.0016
3504.00,0.0016
3503.00,0.0016
3502.00,0.0016
3501.00,0.0016
3500.00,0.0016
3499.00,0.0015
3498.00,0.0015
3497.00,0.0015
3496.00,0.0015
3495.00,0.0015
3494.00,0.0015
3493.00,0.0015
3492.00,0.0015
3491.00,0.0015
3490.00,0.0015
3489.00,0.0015
3488.00,0.0015
3487.00,0.0015
3486.00,0.0015
3485.00,0.0015
3484.00,0.0015
3483.00,0.0015
3482.00,0.0015
3481.00,0.0016
3480.00,0.0016
3479.00,0.0016
3478.00,0.0016
3477.00,0.0016
3476.00,0.0015
3475.00,0.0015
3474.00,0.0015
3473.00,0.0015
3472.00,0.0015
3471.00,0.0016
3470.00,0.0016
3469.00,0.0016
3468.00,0.0016
3467.00,0.0016
3466.00,0.0016
3465.00,0.0016
3464.00,0.0016
3463.00,0.0016
3462.00,0.0016
3461.00,0.0016
3460.00,0.0016
3459.00,0.0016
3458.00,0.0016
3457.00,0.0016
3456.00,0.0016
3455.00,0.0015
3454.00,0.0015
3453.00,0.0015
3452.00,0.0015
3451.00,0.0015
3450.00,0.0015
3449.00,0.0015
3448.00,0.0015
3447.00,0.0016
3446.00,0.0016
3445.00,0.0016
3444.00,0.0016
3443.00,0.0016
3442.00,0.0016
3441.00,0.0016
3440.00,0.0016
3439.00,0.0016
3438.00,0.0016
3437.00,0.0016
3436.00,0.0016
3435.00,0.0016
3434.00,0.0016
3433.00,0.0016
3432.00,0.0016
3431.00,0.0016
3430.00,0.0016
3429.00,0.0016
3428.00,0.0016
3427.00,0.0016
3426.00,0.0016
3425.00,0.0016
3424.00,0.0016
3423.00,0.0016
3422.00,0.0016
3421.00,0.0016
3420.00,0.0016
3419.00,0.0016
3418.00,0.0016
3417.00,0.0016
3416.00,0.0016
3415.00,0.0017
3414.00,0.0017
3413.00,0.0017
3412.00,0.0017
3411.00,0.0017
3410.00,0.0017
3409.00,0.0017
3408.00,0.0017
3407.00,0.0017
3406.00,0.0017
3405.00,0.0017
3404.00,0.0017
3403.00,0.0017
3402.00,0.0017
3401.00,0.0017
3400.00,0.0017
3399.00,0.0017
3398.00,0.0017
3397.00,0.0017
3396.00,0.0017
3395.00,0.0017
3394.00,0.0017
3393.00,0.0017
3392.00,0.0017
3391.00,0.0017
3390.00,0.0017
3389.00,0.0017
3388.00,0.0017
3387.00,0.0017
3386.00,0.0017
3385.00,0.0017
3384.00,0.0017
3383.00,0.0017
3382.00,0.0017
3381.00,0.0017
3380.00,0.0017
3379.00,0.0017
3378.00,0.0017
3377.00,0.0017
3376.00,0.0017
3375.00,0.0017
3374.00,0.0017
3373.00,0.0017
3372.00,0.0017
3371.00,0.0017
3370.00,0.0017
3369.00,0.0017
3368.00,0.0017
3367.00,0.0017
3366.00,0.0017
3365.00,0.0017
3364.00,0.0017
3363.00,0.0017
3362.00,0.0017
3361.00,0.0017
3360.00,0.0017
3359.00,0.0017
3358.00,0.0016
3357.00,0.0016
3356.00,0.0016
3355.00,0.0016
3354.00,0.0017
3353.00,0.0017
3352.00,0.0017
3351.00,0.0017
3350.00,0.0017
3349.00,0.0017
3348.00,0.0017
3347.00,0.0017
3346.00,0.0017
3345.00,0.0017
3344.00,0.0017
3343.00,0.0017
3342.00,0.0017
3341.00,0.0017
3340.00,0.0017
3339.00,0.0017
3338.00,0.0017
3337.00,0.0017
3336.00,0.0017
3335.00,0.0017
3334.00,0.0017
3333.00,0.0017
3332.00,0.0017
3331.00,0.0017
3330.00,0.0017
3329.00,0.0017
3328.00,0.0017
3327.00,0.0017
3326.00,0.0017
3325.00,0.0017
3324.00,0.0017
3323.00,0.0017
3322.00,0.0017
3321.00,0.0017
3320.00,0.0017
3319.00,0.0017
3318.00,0.0017
3317.00,0.0017
3316.00,0.0017
3315.00,0.0017
3314.00,0.0018
3313.00,0.0018
3312.00,0.0018
3311.00,0.0018
3310.00,0.0018
3309.00,0.0018
3308.00,0.0018
3307.00,0.0019
3306.00,0.0019
3305.00,0.0018
3304.00,0.0018
3303.00,0.0018
3302.00,0.0018
3301.00,0.0018
3300.00,0.0018
3299.00,0.0018
3298.00,0.0018
3297.00,0.0018
3296.00,0.0018
3295.00,0.0018
3294.00,0.0018
3293.00,0.0019
3292.00,0.0019
3291.00,0.0019
3290.00,0.0019
3289.00,0.0019
3288.00,0.0018
3287.00,0.0018
3286.00,0.0018
3285.00,0.0018
3284.00,0.0018
3283.00,0.0018
3282.00,0.0018
3281.00,0.0018
3280.00,0.0018
3279.00,0.0018
3278.00,0.0018
3277.00,0.0018
3276.00,0.0018
3275.00,0.0018
3274.00,0.0018
3273.00,0.0018
3272.00,0.0017
3271.00,0.0017
3270.00,0.0017
3269.00,0.0017
3268.00,0.0017
3267.00,0.0017
3266.00,0.0016
3265.00,0.0016
3264.00,0.0016
3263.00,0.0016
3262.00,0.0016
3261.00,0.0016
3260.00,0.0017
3259.00,0.0017
3258.00,0.0017
3257.00,0.0017
3256.00,0.0017
3255.00,0.0017
3254.00,0.0017
3253.00,0.0017
3252.00,0.0017
3251.00,0.0017
3250.00,0.0016
3249.00,0.0016
3248.00,0.0017
3247.00,0.0017
3246.00,0.0017
3245.00,0.0016
3244.00,0.0016
3243.00,0.0016
3242.00,0.0016
3241.00,0.0016
3240.00,0.0015
3239.00,0.0015
3238.00,0.0015
3237.00,0.0015
3236.00,0.0015
3235.00,0.0015
3234.00,0.0015
3233.00,0.0015
3232.00,0.0015
3231.00,0.0015
3230.00,0.0015
3229.00,0.0015
3228.00,0.0015
3227.00,0.0015
3226.00,0.0014
3225.00,0.0015
3224.00,0.0015
3223.00,0.0015
3222.00,0.0015
3221.00,0.0015
3220.00,0.0015
3219.00,0.0015
3218.00,0.0015
3217.00,0.0015
3216.00,0.0015
3215.00,0.0015
3214.00,0.0015
3213.00,0.0015
3212.00,0.0015
3211.00,0.0015
3210.00,0.0015
3209.00,0.0015
3208.00,0.0015
3207.00,0.0015
3206.00,0.0015
3205.00,0.0015
3204.00,0.0015
3203.00,0.0014
3202.00,0.0014
3201.00,0.0014
3200.00,0.0014
3199.00,0.0014
3198.00,0.0014
3197.00,0.0014
3196.00,0.0014
3195.00,0.0014
3194.00,0.0014
3193.00,0.0014
3192.00,0.0014
3191.00,0.0014
3190.00,0.0014
3189.00,0.0014
3188.00,0.0014
3187.00,0.0014
3186.00,0.0014
3185.00,0.0014
3184.00,0.0014
3183.00,0.0014
3182.00,0.0014
3181.00,0.0014
3180.00,0.0014
3179.00,0.0014
3178.00,0.0014
3177.00,0.0014
3176.00,0.0014
3175.00,0.0014
3174.00,0.0014
3173.00,0.0013
3172.00,0.0013
3171.00,0.0014
3170.00,0.0014
3169.00,0.0014
3168.00,0.0015
3167.00,0.0015
3166.00,0.0015
3165.00,0.0015
3164.00,0.0015
3163.00,0.0015
3162.00,0.0015
3161.00,0.0015
3160.00,0.0015
3159.00,0.0015
3158.00,0.0015
3157.00,0.0015
3156.00,0.0015
3155.00,0.0015
3154.00,0.0015
3153.00,0.0015
3152.00,0.0015
3151.00,0.0015
3150.00,0.0015
3149.00,0.0014
3148.00,0.0014
3147.00,0.0014
3146.00,0.0015
3145.00,0.0015
3144.00,0.0015
3143.00,0.0015
3142.00,0.0015
3141.00,0.0015
3140.00,0.0015
3139.00,0.0014
3138.00,0.0014
3137.00,0.0014
3136.00,0.0014
3135.00,0.0014
3134.00,0.0014
3133.00,0.0014
3132.00,0.0014
3131.00,0.0015
3130.00,0.0015
3129.00,0.0014
3128.00,0.0014
3127.00,0.0014
3126.00,0.0015
3125.00,0.0015
3124.00,0.0015
3123.00,0.0016
3122.00,0.0016
3121.00,0.0016
3120.00,0.0017
3119.00,0.0017
3118.00,0.0017
3117.00,0.0017
3116.00,0.0017
3115.00,0.0018
3114.00,0.0019
3113.00,0.0019
3112.00,0.0020
3111.00,0.0022
3110.00,0.0023
3109.00,0.0024
3108.00,0.0025
3107.00,0.0027
3106.00,0.0028
3105.00,0.0029
3104.00,0.0030
3103.00,0.0031
3102.00,0.0031
3101.00,0.0031
3100.00,0.0031
3099.00,0.0030
3098.00,0.0029
3097.00,0.0029
3096.00,0.0028
3095.00,0.0029
3094.00,0.0029
3093.00,0.0031
3092.00,0.0033
3091.00,0.0036
3090.00,0.0039
3089.00,0.0043
3088.00,0.0047
3087.00,0.0051
3086.00,0.0056
3085.00,0.0060
3084.00,0.0064
3083.00,0.0066
3082.00,0.0067
3081.00,0.0067
3080.00,0.0065
3079.00,0.0062
3078.00,0.0059
3077.00,0.0056
3076.00,0.0053
3075.00,0.0051
3074.00,0.0050
3073.00,0.0050
3072.00,0.0050
3071.00,0.0051
3070.00,0.0053
3069.00,0.0056
3068.00,0.0059
3067.00,0.0063
3066.00,0.0067
3065.00,0.0072
3064.00,0.0077
3063.00,0.0082
3062.00,0.0086
3061.00,0.0089
3060.00,0.0090
3059.00,0.0090
3058.00,0.0089
3057.00,0.0085
3056.00,0.0081
3055.00,0.0076
3054.00,0.0071
3053.00,0.0067
3052.00,0.0063
3051.00,0.0059
3050.00,0.0056
3049.00,0.0053
3048.00,0.0051
3047.00,0.0050
3046.00,0.0048
3045.00,0.0048
3044.00,0.0048
3043.00,0.0049
3042.00,0.0050
3041.00,0.0052
3040.00,0.0055
3039.00,0.0058
3038.00,0.0062
3037.00,0.0066
3036.00,0.0072
3035.00,0.0079
3034.00,0.0087
3033.00,0.0096
3032.00,0.0107
3031.00,0.0118
3030.00,0.0130
3029.00,0.0141
3028.00,0.0152
3027.00,0.0161
3026.00,0.0166
3025.00,0.0168
3024.00,0.0165
3023.00,0.0158
3022.00,0.0147
3021.00,0.0133
3020.00,0.0118
3019.00,0.0103
3018.00,0.0089
3017.00,0.0076
3016.00,0.0064
3015.00,0.0055
3014.00,0.0046
3013.00,0.0039
3012.00,0.0032
3011.00,0.0026
3010.00,0.0021
3009.00,0.0016
3008.00,0.0011
3007.00,0.0007
3006.00,0.0003
3005.00,-0.0001
3004.00,-0.0004
3003.00,-0.0008
3002.00,-0.0012
3001.00,-0.0017
3000.00,-0.0023
2999.00,-0.0029
2998.00,-0.0035
2997.00,-0.0042
2996.00,-0.0048
2995.00,-0.0054
2994.00,-0.0059
2993.00,-0.0064
2992.00,-0.0068
2991.00,-0.0072
2990.00,-0.0075
2989.00,-0.0078
2988.00,-0.0082
2987.00,-0.0087
2986.00,-0.0094
2985.00,-0.0106
2984.00,-0.0121
2983.00,-0.0136
2982.00,-0.0147
2981.00,-0.0151
2980.00,-0.0147
2979.00,-0.0140
2978.00,-0.0131
2977.00,-0.0123
2976.00,-0.0117
2975.00,-0.0114
2974.00,-0.0114
2973.00,-0.0115
2972.00,-0.0116
2971.00,-0.0114
2970.00,-0.0109
2969.00,-0.0102
2968.00,-0.0095
2967.00,-0.0088
2966.00,-0.0082
2965.00,-0.0077
2964.00,-0.0072
2963.00,-0.0067
2962.00,-0.0062
2961.00,-0.0058
2960.00,-0.0054
2959.00,-0.0050
2958.00,-0.0046
2957.00,-0.0042
2956.00,-0.0037
2955.00,-0.0033
2954.00,-0.0028
2953.00,-0.0023
2952.00,-0.0017
2951.00,-0.0012
2950.00,-0.0007
2949.00,-0.0001
2948.00,0.0004
2947.00,0.0010
2946.00,0.0017
2945.00,0.0024
2944.00,0.0030
2943.00,0.0036
2942.00,0.0042
2941.00,0.0048
2940.00,0.0054
2939.00,0.0060
2938.00,0.0066
2937.00,0.0073
2936.00,0.0080
2935.00,0.0086
2934.00,0.0092
2933.00,0.0098
2932.00,0.0105
2931.00,0.0111
2930.00,0.0118
2929.00,0.0125
2928.00,0.0131
2927.00,0.0136
2926.00,0.0141
2925.00,0.0145
2924.00,0.0148
2923.00,0.0150
2922.00,0.0151
2921.00,0.0151
2920.00,0.0151
2919.00,0.0150
2918.00,0.0148
2917.00,0.0145
2916.00,0.0142
2915.00,0.0138
2914.00,0.0134
2913.00,0.0130
2912.00,0.0126
2911.00,0.0121
2910.00,0.0116
2909.00,0.0111
2908.00,0.0105
2907.00,0.0100
2906.00,0.0094
2905.00,0.0089
2904.00,0.0083
2903.00,0.0078
2902.00,0.0072
2901.00,0.0067
2900.00,0.0062
2899.00,0.0057
2898.00,0.0053
2897.00,0.0048
2896.00,0.0043
2895.00,0.0039
2894.00,0.0034
2893.00,0.0030
2892.00,0.0026
2891.00,0.0023
2890.00,0.0020
2889.00,0.0018
2888.00,0.0016
2887.00,0.0015
2886.00,0.0013
2885.00,0.0012
2884.00,0.0010
2883.00,0.0010
2882.00,0.0011
2881.00,0.0012
2880.00,0.0014
2879.00,0.0015
2878.00,0.0016
2877.00,0.0017
2876.00,0.0017
2875.00,0.0016
2874.00,0.0016
2873.00,0.0016
2872.00,0.0016
2871.00,0.0016
2870.00,0.0017
2869.00,0.0018
2868.00,0.0019
2867.00,0.0021
2866.00,0.0023
2865.00,0.0025
2864.00,0.0027
2863.00,0.0029
2862.00,0.0032
2861.00,0.0036
2860.00,0.0039
2859.00,0.0043
2858.00,0.0046
2857.00,0.0050
2856.00,0.0054
2855.00,0.0057
2854.00,0.0060
2853.00,0.0063
2852.00,0.0066
2851.00,0.0068
2850.00,0.0070
2849.00,0.0071
2848.00,0.0072
2847.00,0.0072
2846.00,0.0071
2845.00,0.0069
2844.00,0.0066
2843.00,0.0063
2842.00,0.0058
2841.00,0.0054
2840.00,0.0049
2839.00,0.0045
2838.00,0.0041
2837.00,0.0037
2836.00,0.0033
2835.00,0.0030
2834.00,0.0027
2833.00,0.0024
2832.00,0.0023
2831.00,0.0021
2830.00,0.0020
2829.00,0.0019
2828.00,0.0018
2827.00,0.0017
2826.00,0.0017
2825.00,0.0016
2824.00,0.0016
2823.00,0.0016
2822.00,0.0016
2821.00,0.0016
2820.00,0.0015
2819.00,0.0015
2818.00,0.0015
2817.00,0.0015
2816.00,0.0015
2815.00,0.0015
2814.00,0.0015
2813.00,0.0015
2812.00,0.0015
2811.00,0.0015
2810.00,0.0015
2809.00,0.0015
2808.00,0.0015
2807.00,0.0015
2806.00,0.0015
2805.00,0.0015
2804.00,0.0014
2803.00,0.0014
2802.00,0.0014
2801.00,0.0014
2800.00,0.0014
2799.00,0.0014
2798.00,0.0014
2797.00,0.0014
2796.00,0.0013
2795.00,0.0013
2794.00,0.0013
2793.00,0.0013
2792.00,0.0013
2791.00,0.0013
2790.00,0.0013
2789.00,0.0013
2788.00,0.0013
2787.00,0.0012
2786.00,0.0012
2785.00,0.0013
2784.00,0.0013
2783.00,0.0013
2782.00,0.0013
2781.00,0.0013
2780.00,0.0013
2779.00,0.0013
2778.00,0.0013
2777.00,0.0013
2776.00,0.0013
2775.00,0.0013
2774.00,0.0013
2773.00,0.0013
2772.00,0.0012
2771.00,0.0012
2770.00,0.0012
2769.00,0.0012
2768.00,0.0012
2767.00,0.0012
2766.00,0.0012
2765.00,0.0012
2764.00,0.0012
2763.00,0.0012
2762.00,0.0012
2761.00,0.0012
2760.00,0.0012
2759.00,0.0012
2758.00,0.0012
2757.00,0.0012
2756.00,0.0012
2755.00,0.0012
2754.00,0.0012
2753.00,0.0012
2752.00,0.0012
2751.00,0.0012
2750.00,0.0012
2749.00,0.0012
2748.00,0.0012
2747.00,0.0012
2746.00,0.0012
2745.00,0.0012
2744.00,0.0012
2743.00,0.0012
2742.00,0.0012
2741.00,0.0012
2740.00,0.0012
2739.00,0.0012
2738.00,0.0012
2737.00,0.0012
2736.00,0.0012
2735.00,0.0012
2734.00,0.0012
2733.00,0.0012
2732.00,0.0012
2731.00,0.0012
2730.00,0.0012
2729.00,0.0012
2728.00,0.0013
2727.00,0.0013
2726.00,0.0013
2725.00,0.0013
2724.00,0.0013
2723.00,0.0013
2722.00,0.0013
2721.00,0.0013
2720.00,0.0013
2719.00,0.0013
2718.00,0.0013
2717.00,0.0013
2716.00,0.0013
2715.00,0.0013
2714.00,0.0013
2713.00,0.0013
2712.00,0.0013
2711.00,0.0013
2710.00,0.0013
2709.00,0.0013
2708.00,0.0013
2707.00,0.0013
2706.00,0.0013
2705.00,0.0013
2704.00,0.0014
2703.00,0.0014
2702.00,0.0014
2701.00,0.0014
2700.00,0.0014
2699.00,0.0014
2698.00,0.0014
2697.00,0.0014
2696.00,0.0013
2695.00,0.0013
2694.00,0.0013
2693.00,0.0013
2692.00,0.0013
2691.00,0.0013
2690.00,0.0013
2689.00,0.0013
2688.00,0.0013
2687.00,0.0013
2686.00,0.0013
2685.00,0.0013
2684.00,0.0013
2683.00,0.0013
2682.00,0.0013
2681.00,0.0013
2680.00,0.0013
2679.00,0.0013
2678.00,0.0013
2677.00,0.0013
2676.00,0.0012
2675.00,0.0012
2674.00,0.0012
2673.00,0.0012
2672.00,0.0012
2671.00,0.0012
2670.00,0.0012
2669.00,0.0012
2668.00,0.0012
2667.00,0.0012
2666.00,0.0012
2665.00,0.0012
2664.00,0.0013
2663.00,0.0013
2662.00,0.0014
2661.00,0.0014
2660.00,0.0014
2659.00,0.0014
2658.00,0.0014
2657.00,0.0015
2656.00,0.0015
2655.00,0.0015
2654.00,0.0015
2653.00,0.0015
2652.00,0.0015
2651.00,0.0015
2650.00,0.0015
2649.00,0.0015
2648.00,0.0015
2647.00,0.0015
2646.00,0.0015
2645.00,0.0015
2644.00,0.0015
2643.00,0.0015
2642.00,0.0015
2641.00,0.0015
2640.00,0.0015
2639.00,0.0016
2638.00,0.0016
2637.00,0.0016
2636.00,0.0016
2635.00,0.0016
2634.00,0.0017
2633.00,0.0016
2632.00,0.0016
2631.00,0.0016
2630.00,0.0016
2629.00,0.0016
2628.00,0.0016
2627.00,0.0016
2626.00,0.0015
2625.00,0.0015
2624.00,0.0015
2623.00,0.0015
2622.00,0.0015
2621.00,0.0015
2620.00,0.0015
2619.00,0.0015
2618.00,0.0015
2617.00,0.0015
2616.00,0.0015
2615.00,0.0015
2614.00,0.0015
2613.00,0.0015
2612.00,0.0015
2611.00,0.0015
2610.00,0.0015
2609.00,0.0015
2608.00,0.0015
2607.00,0.0015
2606.00,0.0016
2605.00,0.0016
2604.00,0.0016
2603.00,0.0016
2602.00,0.0016
2601.00,0.0016
2600.00,0.0015
2599.00,0.0015
2598.00,0.0015
2597.00,0.0015
2596.00,0.0014
2595.00,0.0014
2594.00,0.0014
2593.00,0.0014
2592.00,0.0014
2591.00,0.0014
2590.00,0.0014
2589.00,0.0014
2588.00,0.0014
2587.00,0.0014
2586.00,0.0014
2585.00,0.0015
2584.00,0.0015
2583.00,0.0015
2582.00,0.0015
2581.00,0.0015
2580.00,0.0015
2579.00,0.0015
2578.00,0.0015
2577.00,0.0015
2576.00,0.0015
2575.00,0.0015
2574.00,0.0014
2573.00,0.0014
2572.00,0.0013
2571.00,0.0013
2570.00,0.0013
2569.00,0.0013
2568.00,0.0013
2567.00,0.0014
2566.00,0.0014
2565.00,0.0014
2564.00,0.0014
2563.00,0.0014
2562.00,0.0014
2561.00,0.0014
2560.00,0.0014
2559.00,0.0014
2558.00,0.0014
2557.00,0.0013
2556.00,0.0013
2555.00,0.0013
2554.00,0.0013
2553.00,0.0013
2552.00,0.0013
2551.00,0.0013
2550.00,0.0013
2549.00,0.0013
2548.00,0.0013
2547.00,0.0013
2546.00,0.0013
2545.00,0.0013
2544.00,0.0013
2543.00,0.0013
2542.00,0.0013
2541.00,0.0013
2540.00,0.0012
2539.00,0.0012
2538.00,0.0012
2537.00,0.0012
2536.00,0.0012
2535.00,0.0012
2534.00,0.0012
2533.00,0.0012
2532.00,0.0012
2531.00,0.0012
2530.00,0.0012
2529.00,0.0012
2528.00,0.0012
2527.00,0.0012
2526.00,0.0012
2525.00,0.0012
2524.00,0.0012
2523.00,0.0012
2522.00,0.0012
2521.00,0.0012
2520.00,0.0012
2519.00,0.0012
2518.00,0.0012
2517.00,0.0012
2516.00,0.0011
2515.00,0.0011
2514.00,0.0011
2513.00,0.0011
2512.00,0.0012
2511.00,0.0012
2510.00,0.0012
2509.00,0.0012
2508.00,0.0012
2507.00,0.0012
2506.00,0.0012
2505.00,0.0012
2504.00,0.0012
2503.00,0.0012
2502.00,0.0012
2501.00,0.0011
2500.00,0.0011
2499.00,0.0011
2498.00,0.0011
2497.00,0.0012
2496.00,0.0012
2495.00,0.0012
2494.00,0.0012
2493.00,0.0012
2492.00,0.0012
2491.00,0.0012
2490.00,0.0011
2489.00,0.0012
2488.00,0.0012
2487.00,0.0012
2486.00,0.0011
2485.00,0.0011
2484.00,0.0011
2483.00,0.0011
2482.00,0.0011
2481.00,0.0011
2480.00,0.0011
2479.00,0.0011
2478.00,0.0011
2477.00,0.0012
2476.00,0.0012
2475.00,0.0012
2474.00,0.0011
2473.00,0.0011
2472.00,0.0011
2471.00,0.0010
2470.00,0.0010
2469.00,0.0010
2468.00,0.0010
2467.00,0.0011
2466.00,0.0011
2465.00,0.0011
2464.00,0.0011
2463.00,0.0011
2462.00,0.0011
2461.00,0.0011
2460.00,0.0012
2459.00,0.0012
2458.00,0.0012
2457.00,0.0012
2456.00,0.0012
2455.00,0.0012
2454.00,0.0012
2453.00,0.0012
2452.00,0.0012
2451.00,0.0012
2450.00,0.0012
2449.00,0.0012
2448.00,0.0012
2447.00,0.0011
2446.00,0.0011
2445.00,0.0011
2444.00,0.0011
2443.00,0.0011
2442.00,0.0011
2441.00,0.0011
2440.00,0.0010
2439.00,0.0010
2438.00,0.0010
2437.00,0.0010
2436.00,0.0010
2435.00,0.0010
2434.00,0.0010
2433.00,0.0011
2432.00,0.0011
2431.00,0.0011
2430.00,0.0011
2429.00,0.0010
2428.00,0.0010
2427.00,0.0010
2426.00,0.0010
2425.00,0.0010
2424.00,0.0009
2423.00,0.0009
2422.00,0.0009
2421.00,0.0009
2420.00,0.0009
2419.00,0.0009
2418.00,0.0009
2417.00,0.0009
2416.00,0.0010
2415.00,0.0010
2414.00,0.0010
2413.00,0.0010
2412.00,0.0010
2411.00,0.0010
2410.00,0.0010
2409.00,0.0010
2408.00,0.0009
2407.00,0.0009
2406.00,0.0009
2405.00,0.0009
2404.00,0.0009
2403.00,0.0009
2402.00,0.0009
2401.00,0.0009
2400.00,0.0009
2399.00,0.0009
2398.00,0.0009
2397.00,0.0009
2396.00,0.0009
2395.00,0.0009
2394.00,0.0009
2393.00,0.0010
2392.00,0.0010
2391.00,0.0010
2390.00,0.0009
2389.00,0.0009
2388.00,0.0008
2387.00,0.0008
2386.00,0.0008
2385.00,0.0008
2384.00,0.0008
2383.00,0.0008
2382.00,0.0008
2381.00,0.0008
2380.00,0.0007
2379.00,0.0007
2378.00,0.0007
2377.00,0.0008
2376.00,0.0008
2375.00,0.0008
2374.00,0.0008
2373.00,0.0008
2372.00,0.0008
2371.00,0.0007
2370.00,0.0007
2369.00,0.0007
2368.00,0.0007
2367.00,0.0008
2366.00,0.0008
2365.00,0.0009
2364.00,0.0009
2363.00,0.0009
2362.00,0.0009
2361.00,0.0009
2360.00,0.0009
2359.00,0.0009
2358.00,0.0010
2357.00,0.0010
2356.00,0.0010
2355.00,0.0010
2354.00,0.0010
2353.00,0.0010
2352.00,0.0010
2351.00,0.0010
2350.00,0.0010
2349.00,0.0011
2348.00,0.0011
2347.00,0.0012
2346.00,0.0012
2345.00,0.0012
2344.00,0.0012
2343.00,0.0013
2342.00,0.0014
2341.00,0.0014
2340.00,0.0014
2339.00,0.0013
2338.00,0.0013
2337.00,0.0013
2336.00,0.0013
2335.00,0.0013
2334.00,0.0013
2333.00,0.0012
2332.00,0.0012
2331.00,0.0012
2330.00,0.0013
2329.00,0.0014
2328.00,0.0015
2327.00,0.0017
2326.00,0.0019
2325.00,0.0020
2324.00,0.0019
2323.00,0.0018
2322.00,0.0017
2321.00,0.0017
2320.00,0.0016
2319.00,0.0016
2318.00,0.0016
2317.00,0.0017
2316.00,0.0017
2315.00,0.0017
2314.00,0.0017
2313.00,0.0016
2312.00,0.0016
2311.00,0.0015
2310.00,0.0015
2309.00,0.0014
2308.00,0.0014
2307.00,0.0014
2306.00,0.0014
2305.00,0.0014
2304.00,0.0014
2303.00,0.0014
2302.00,0.0014
2301.00,0.0014
2300.00,0.0015
2299.00,0.0015
2298.00,0.0015
2297.00,0.0015
2296.00,0.0015
2295.00,0.0016
2294.00,0.0017
2293.00,0.0017
2292.00,0.0018
2291.00,0.0019
2290.00,0.0019
2289.00,0.0019
2288.00,0.0019
2287.00,0.0019
2286.00,0.0018
2285.00,0.0018
2284.00,0.0017
2283.00,0.0016
2282.00,0.0016
2281.00,0.0016
2280.00,0.0016
2279.00,0.0015
2278.00,0.0015
2277.00,0.0015
2276.00,0.0015
2275.00,0.0015
2274.00,0.0015
2273.00,0.0015
2272.00,0.0014
2271.00,0.0014
2270.00,0.0014
2269.00,0.0014
2268.00,0.0014
2267.00,0.0014
2266.00,0.0015
2265.00,0.0015
2264.00,0.0016
2263.00,0.0016
2262.00,0.0016
2261.00,0.0016
2260.00,0.0016
2259.00,0.0015
2258.00,0.0015
2257.00,0.0014
2256.00,0.0013
2255.00,0.0013
2254.00,0.0013
2253.00,0.0013
2252.00,0.0013
2251.00,0.0013
2250.00,0.0013
2249.00,0.0013
2248.00,0.0014
2247.00,0.0014
2246.00,0.0014
2245.00,0.0014
2244.00,0.0014
2243.00,0.0014
2242.00,0.0014
2241.00,0.0014
2240.00,0.0014
2239.00,0.0013
2238.00,0.0013
2237.00,0.0013
2236.00,0.0013
2235.00,0.0013
2234.00,0.0013
2233.00,0.0013
2232.00,0.0013
2231.00,0.0013
2230.00,0.0013
2229.00,0.0012
2228.00,0.0012
2227.00,0.0011
2226.00,0.0011
2225.00,0.0011
2224.00,0.0011
2223.00,0.0010
2222.00,0.0011
2221.00,0.0011
2220.00,0.0011
2219.00,0.0011
2218.00,0.0012
2217.00,0.0013
2216.00,0.0014
2215.00,0.0014
2214.00,0.0013
2213.00,0.0012
2212.00,0.0011
2211.00,0.0011
2210.00,0.0010
2209.00,0.0010
2208.00,0.0010
2207.00,0.0011
2206.00,0.0011
2205.00,0.0011
2204.00,0.0011
2203.00,0.0011
2202.00,0.0011
2201.00,0.0012
2200.00,0.0012
2199.00,0.0013
2198.00,0.0013
2197.00,0.0012
2196.00,0.0012
2195.00,0.0011
2194.00,0.0011
2193.00,0.0011
2192.00,0.0011
2191.00,0.0012
2190.00,0.0012
2189.00,0.0012
2188.00,0.0012
2187.00,0.0012
2186.00,0.0011
2185.00,0.0011
2184.00,0.0010
2183.00,0.0008
2182.00,0.0008
2181.00,0.0007
2180.00,0.0007
2179.00,0.0007
2178.00,0.0006
2177.00,0.0005
2176.00,0.0005
2175.00,0.0006
2174.00,0.0007
2173.00,0.0009
2172.00,0.0010
2171.00,0.0012
2170.00,0.0014
2169.00,0.0016
2168.00,0.0017
2167.00,0.0018
2166.00,0.0018
2165.00,0.0018
2164.00,0.0017
2163.00,0.0016
2162.00,0.0014
2161.00,0.0009
2160.00,0.0001
2159.00,-0.0006
2158.00,-0.0011
2157.00,-0.0011
2156.00,-0.0009
2155.00,-0.0006
2154.00,-0.0004
2153.00,-0.0004
2152.00,-0.0003
2151.00,-0.0002
2150.00,-0.0001
2149.00,-0.0000
2148.00,-0.0001
2147.00,-0.0003
2146.00,-0.0004
2145.00,-0.0004
2144.00,-0.0002
2143.00,-0.0000
2142.00,0.0001
2141.00,0.0001
2140.00,0.0001
2139.00,-0.0000
2138.00,-0.0001
2137.00,-0.0003
2136.00,-0.0004
2135.00,-0.0005
2134.00,-0.0005
2133.00,-0.0005
2132.00,-0.0004
2131.00,-0.0003
2130.00,-0.0002
2129.00,-0.0000
2128.00,0.0001
2127.00,0.0003
2126.00,0.0003
2125.00,0.0004
2124.00,0.0003
2123.00,0.0004
2122.00,0.0005
2121.00,0.0005
2120.00,0.0005
2119.00,0.0006
2118.00,0.0006
2117.00,0.0007
2116.00,0.0009
2115.00,0.0010
2114.00,0.0010
2113.00,0.0010
2112.00,0.0009
2111.00,0.0009
2110.00,0.0008
2109.00,0.0008
2108.00,0.0008
2107.00,0.0008
2106.00,0.0008
2105.00,0.0008
2104.00,0.0007
2103.00,0.0007
2102.00,0.0007
2101.00,0.0007
2100.00,0.0007
2099.00,0.0007
2098.00,0.0007
2097.00,0.0007
2096.00,0.0006
2095.00,0.0006
2094.00,0.0006
2093.00,0.0006
2092.00,0.0007
2091.00,0.0008
2090.00,0.0008
2089.00,0.0008
2088.00,0.0007
2087.00,0.0007
2086.00,0.0008
2085.00,0.0008
2084.00,0.0009
2083.00,0.0009
2082.00,0.0010
2081.00,0.0010
2080.00,0.0010
2079.00,0.0010
2078.00,0.0009
2077.00,0.0009
2076.00,0.0009
2075.00,0.0009
2074.00,0.0009
2073.00,0.0009
2072.00,0.0009
2071.00,0.0010
2070.00,0.0010
2069.00,0.0010
2068.00,0.0010
2067.00,0.0008
2066.00,0.0007
2065.00,0.0007
2064.00,0.0007
2063.00,0.0007
2062.00,0.0007
2061.00,0.0007
2060.00,0.0007
2059.00,0.0008
2058.00,0.0009
2057.00,0.0009
2056.00,0.0009
2055.00,0.0008
2054.00,0.0009
2053.00,0.0011
2052.00,0.0013
2051.00,0.0014
2050.00,0.0014
2049.00,0.0012
2048.00,0.0010
2047.00,0.0009
2046.00,0.0009
2045.00,0.0010
2044.00,0.0010
2043.00,0.0011
2042.00,0.0011
2041.00,0.0010
2040.00,0.0009
2039.00,0.0009
2038.00,0.0009
2037.00,0.0009
2036.00,0.0009
2035.00,0.0007
2034.00,0.0005
2033.00,0.0004
2032.00,0.0004
2031.00,0.0004
2030.00,0.0004
2029.00,0.0003
2028.00,0.0002
2027.00,0.0002
2026.00,0.0002
2025.00,0.0002
2024.00,0.0003
2023.00,0.0004
2022.00,0.0005
2021.00,0.0005
2020.00,0.0004
2019.00,0.0005
2018.00,0.0006
2017.00,0.0006
2016.00,0.0005
2015.00,0.0005
2014.00,0.0005
2013.00,0.0006
2012.00,0.0007
2011.00,0.0008
2010.00,0.0008
2009.00,0.0006
2008.00,0.0004
2007.00,0.0002
2006.00,0.0001
2005.00,0.0001
2004.00,0.0001
2003.00,0.0002
2002.00,0.0004
2001.00,0.0006
2000.00,0.0007
1999.00,0.0008
1998.00,0.0007
1997.00,0.0007
1996.00,0.0006
1995.00,0.0007
1994.00,0.0008
1993.00,0.0010
1992.00,0.0012
1991.00,0.0013
1990.00,0.0014
1989.00,0.0014
1988.00,0.0013
1987.00,0.0012
1986.00,0.0012
1985.00,0.0012
1984.00,0.0013
1983.00,0.0015
1982.00,0.0017
1981.00,0.0018
1980.00,0.0017
1979.00,0.0014
1978.00,0.0011
1977.00,0.0007
1976.00,0.0004
1975.00,0.0003
1974.00,0.0003
1973.00,0.0004
1972.00,0.0005
1971.00,0.0007
1970.00,0.0009
1969.00,0.0010
1968.00,0.0011
1967.00,0.0012
1966.00,0.0012
1965.00,0.0012
1964.00,0.0012
1963.00,0.0012
1962.00,0.0012
1961.00,0.0012
1960.00,0.0011
1959.00,0.0012
1958.00,0.0013
1957.00,0.0014
1956.00,0.0015
1955.00,0.0016
1954.00,0.0017
1953.00,0.0018
1952.00,0.0018
1951.00,0.0019
1950.00,0.0019
1949.00,0.0019
1948.00,0.0020
1947.00,0.0022
1946.00,0.0024
1945.00,0.0027
1944.00,0.0029
1943.00,0.0029
1942.00,0.0028
1941.00,0.0027
1940.00,0.0026
1939.00,0.0026
1938.00,0.0025
1937.00,0.0024
1936.00,0.0022
1935.00,0.0021
1934.00,0.0019
1933.00,0.0017
1932.00,0.0015
1931.00,0.0014
1930.00,0.0013
1929.00,0.0012
1928.00,0.0011
1927.00,0.0011
1926.00,0.0010
1925.00,0.0010
1924.00,0.0010
1923.00,0.0010
1922.00,0.0011
1921.00,0.0011
1920.00,0.0011
1919.00,0.0012
1918.00,0.0011
1917.00,0.0011
1916.00,0.0010
1915.00,0.0010
1914.00,0.0010
1913.00,0.0010
1912.00,0.0009
1911.00,0.0009
1910.00,0.0008
1909.00,0.0008
1908.00,0.0007
1907.00,0.0008
1906.00,0.0008
1905.00,0.0008
1904.00,0.0009
1903.00,0.0009
1902.00,0.0009
1901.00,0.0009
1900.00,0.0009
1899.00,0.0010
1898.00,0.0011
1897.00,0.0011
1896.00,0.0011
1895.00,0.0012
1894.00,0.0013
1893.00,0.0014
1892.00,0.0015
1891.00,0.0015
1890.00,0.0015
1889.00,0.0015
1888.00,0.0016
1887.00,0.0018
1886.00,0.0019
1885.00,0.0020
1884.00,0.0021
1883.00,0.0021
1882.00,0.0022
1881.00,0.0022
1880.00,0.0022
1879.00,0.0023
1878.00,0.0023
1877.00,0.0024
1876.00,0.0024
1875.00,0.0024
1874.00,0.0025
1873.00,0.0026
1872.00,0.0026
1871.00,0.0027
1870.00,0.0027
1869.00,0.0027
1868.00,0.0026
1867.00,0.0026
1866.00,0.0025
1865.00,0.0024
1864.00,0.0023
1863.00,0.0022
1862.00,0.0020
1861.00,0.0019
1860.00,0.0018
1859.00,0.0017
1858.00,0.0016
1857.00,0.0015
1856.00,0.0014
1855.00,0.0013
1854.00,0.0012
1853.00,0.0012
1852.00,0.0011
1851.00,0.0011
1850.00,0.0011
1849.00,0.0011
1848.00,0.0011
1847.00,0.0011
1846.00,0.0012
1845.00,0.0012
1844.00,0.0012
1843.00,0.0012
1842.00,0.0012
1841.00,0.0011
1840.00,0.0011
1839.00,0.0010
1838.00,0.0010
1837.00,0.0010
1836.00,0.0010
1835.00,0.0010
1834.00,0.0010
1833.00,0.0010
1832.00,0.0011
1831.00,0.0011
1830.00,0.0011
1829.00,0.0011
1828.00,0.0013
1827.00,0.0014
1826.00,0.0015
1825.00,0.0015
1824.00,0.0016
1823.00,0.0016
1822.00,0.0017
1821.00,0.0017
1820.00,0.0017
1819.00,0.0017
1818.00,0.0017
1817.00,0.0018
1816.00,0.0018
1815.00,0.0019
1814.00,0.0021
1813.00,0.0022
1812.00,0.0023
1811.00,0.0024
1810.00,0.0025
1809.00,0.0025
1808.00,0.0026
1807.00,0.0026
1806.00,0.0027
1805.00,0.0028
1804.00,0.0029
1803.00,0.0030
1802.00,0.0031
1801.00,0.0031
1800.00,0.0031
1799.00,0.0030
1798.00,0.0030
1797.00,0.0029
1796.00,0.0028
1795.00,0.0027
1794.00,0.0026
1793.00,0.0025
1792.00,0.0024
1791.00,0.0022
1790.00,0.0021
1789.00,0.0020
1788.00,0.0018
1787.00,0.0017
1786.00,0.0017
1785.00,0.0016
1784.00,0.0016
1783.00,0.0015
1782.00,0.0015
1781.00,0.0015
1780.00,0.0016
1779.00,0.0016
1778.00,0.0016
1777.00,0.0016
1776.00,0.0016
1775.00,0.0016
1774.00,0.0016
1773.00,0.0016
1772.00,0.0016
1771.00,0.0016
1770.00,0.0017
1769.00,0.0018
1768.00,0.0018
1767.00,0.0018
1766.00,0.0017
1765.00,0.0017
1764.00,0.0017
1763.00,0.0017
1762.00,0.0017
1761.00,0.0019
1760.00,0.0020
1759.00,0.0021
1758.00,0.0022
1757.00,0.0023
1756.00,0.0024
1755.00,0.0026
1754.00,0.0028
1753.00,0.0030
1752.00,0.0033
1751.00,0.0035
1750.00,0.0035
1749.00,0.0035
1748.00,0.0036
1747.00,0.0036
1746.00,0.0036
1745.00,0.0036
1744.00,0.0035
1743.00,0.0035
1742.00,0.0035
1741.00,0.0036
1740.00,0.0036
1739.00,0.0036
1738.00,0.0036
1737.00,0.0037
1736.00,0.0039
1735.00,0.0040
1734.00,0.0039
1733.00,0.0038
1732.00,0.0036
1731.00,0.0035
1730.00,0.0033
1729.00,0.0031
1728.00,0.0030
1727.00,0.0029
1726.00,0.0029
1725.00,0.0028
1724.00,0.0028
1723.00,0.0027
1722.00,0.0027
1721.00,0.0027
1720.00,0.0026
1719.00,0.0026
1718.00,0.0026
1717.00,0.0027
1716.00,0.0027
1715.00,0.0027
1714.00,0.0027
1713.00,0.0026
1712.00,0.0025
1711.00,0.0024
1710.00,0.0024
1709.00,0.0024
1708.00,0.0024
1707.00,0.0023
1706.00,0.0022
1705.00,0.0022
1704.00,0.0022
1703.00,0.0024
1702.00,0.0027
1701.00,0.0030
1700.00,0.0030
1699.00,0.0029
1698.00,0.0030
1697.00,0.0029
1696.00,0.0028
1695.00,0.0027
1694.00,0.0027
1693.00,0.0027
1692.00,0.0027
1691.00,0.0028
1690.00,0.0028
1689.00,0.0029
1688.00,0.0029
1687.00,0.0030
1686.00,0.0030
1685.00,0.0030
1684.00,0.0030
1683.00,0.0031
1682.00,0.0032
1681.00,0.0033
1680.00,0.0033
1679.00,0.0033
1678.00,0.0034
1677.00,0.0034
1676.00,0.0035
1675.00,0.0036
1674.00,0.0036
1673.00,0.0036
1672.00,0.0037
1671.00,0.0037
1670.00,0.0037
1669.00,0.0036
1668.00,0.0036
1667.00,0.0036
1666.00,0.0036
1665.00,0.0036
1664.00,0.0036
1663.00,0.0036
1662.00,0.0036
1661.00,0.0036
1660.00,0.0037
1659.00,0.0037
1658.00,0.0036
1657.00,0.0036
1656.00,0.0036
1655.00,0.0036
1654.00,0.0035
1653.00,0.0034
1652.00,0.0035
1651.00,0.0036
1650.00,0.0036
1649.00,0.0036
1648.00,0.0036
1647.00,0.0036
1646.00,0.0036
1645.00,0.0037
1644.00,0.0036
1643.00,0.0035
1642.00,0.0035
1641.00,0.0035
1640.00,0.0034
1639.00,0.0034
1638.00,0.0035
1637.00,0.0035
1636.00,0.0034
1635.00,0.0034
1634.00,0.0034
1633.00,0.0033
1632.00,0.0033
1631.00,0.0033
1630.00,0.0033
1629.00,0.0032
1628.00,0.0032
1627.00,0.0032
1626.00,0.0032
1625.00,0.0033
1624.00,0.0033
1623.00,0.0034
1622.00,0.0034
1621.00,0.0034
1620.00,0.0034
1619.00,0.0034
1618.00,0.0035
1617.00,0.0035
1616.00,0.0037
1615.00,0.0039
1614.00,0.0041
1613.00,0.0043
1612.00,0.0046
1611.00,0.0051
1610.00,0.0058
1609.00,0.0066
1608.00,0.0077
1607.00,0.0092
1606.00,0.0109
1605.00,0.0128
1604.00,0.0147
1603.00,0.0165
1602.00,0.0177
1601.00,0.0181
1600.00,0.0177
1599.00,0.0166
1598.00,0.0149
1597.00,0.0131
1596.00,0.0113
1595.00,0.0099
1594.00,0.0087
1593.00,0.0078
1592.00,0.0071
1591.00,0.0066
1590.00,0.0062
1589.00,0.0060
1588.00,0.0060
1587.00,0.0063
1586.00,0.0068
1585.00,0.0074
1584.00,0.0079
1583.00,0.0081
1582.00,0.0079
1581.00,0.0071
1580.00,0.0063
1579.00,0.0055
1578.00,0.0049
1577.00,0.0043
1576.00,0.0039
1575.00,0.0037
1574.00,0.0035
1573.00,0.0034
1572.00,0.0033
1571.00,0.0032
1570.00,0.0031
1569.00,0.0031
1568.00,0.0031
1567.00,0.0032
1566.00,0.0031
1565.00,0.0030
1564.00,0.0030
1563.00,0.0029
1562.00,0.0029
1561.00,0.0029
1560.00,0.0031
1559.00,0.0033
1558.00,0.0035
1557.00,0.0035
1556.00,0.0036
1555.00,0.0036
1554.00,0.0037
1553.00,0.0038
1552.00,0.0039
1551.00,0.0040
1550.00,0.0041
1549.00,0.0042
1548.00,0.0043
1547.00,0.0045
1546.00,0.0046
1545.00,0.0047
1544.00,0.0047
1543.00,0.0047
1542.00,0.0047
1541.00,0.0046
1540.00,0.0045
1539.00,0.0044
1538.00,0.0044
1537.00,0.0043
1536.00,0.0042
1535.00,0.0041
1534.00,0.0040
1533.00,0.0039
1532.00,0.0038
1531.00,0.0037
1530.00,0.0037
1529.00,0.0037
1528.00,0.0036
1527.00,0.0036
1526.00,0.0036
1525.00,0.0036
1524.00,0.0035
1523.00,0.0035
1522.00,0.0035
1521.00,0.0035
1520.00,0.0035
1519.00,0.0035
1518.00,0.0035
1517.00,0.0036
1516.00,0.0037
1515.00,0.0037
1514.00,0.0038
1513.00,0.0038
1512.00,0.0038
1511.00,0.0039
1510.00,0.0040
1509.00,0.0042
1508.00,0.0043
1507.00,0.0044
1506.00,0.0046
1505.00,0.0048
1504.00,0.0050
1503.00,0.0053
1502.00,0.0059
1501.00,0.0067
1500.00,0.0080
1499.00,0.0100
1498.00,0.0135
1497.00,0.0188
1496.00,0.0258
1495.00,0.0331
1494.00,0.0392
1493.00,0.0432
1492.00,0.0439
1491.00,0.0406
1490.00,0.0341
1489.00,0.0267
1488.00,0.0207
1487.00,0.0165
1486.00,0.0135
1485.00,0.0112
1484.00,0.0095
1483.00,0.0081
1482.00,0.0070
1481.00,0.0062
1480.00,0.0055
1479.00,0.0051
1478.00,0.0048
1477.00,0.0045
1476.00,0.0042
1475.00,0.0039
1474.00,0.0038
1473.00,0.0037
1472.00,0.0037
1471.00,0.0037
1470.00,0.0038
1469.00,0.0039
1468.00,0.0040
1467.00,0.0041
1466.00,0.0041
1465.00,0.0042
1464.00,0.0043
1463.00,0.0046
1462.00,0.0050
1461.00,0.0057
1460.00,0.0067
1459.00,0.0083
1458.00,0.0114
1457.00,0.0170
1456.00,0.0241
1455.00,0.0307
1454.00,0.0365
1453.00,0.0410
1452.00,0.0434
1451.00,0.0432
1450.00,0.0412
1449.00,0.0379
1448.00,0.0343
1447.00,0.0310
1446.00,0.0283
1445.00,0.0262
1444.00,0.0241
1443.00,0.0221
1442.00,0.0202
1441.00,0.0186
1440.00,0.0172
1439.00,0.0160
1438.00,0.0148
1437.00,0.0134
1436.00,0.0118
1435.00,0.0104
1434.00,0.0094
1433.00,0.0086
1432.00,0.0078
1431.00,0.0070
1430.00,0.0064
1429.00,0.0059
1428.00,0.0054
1427.00,0.0051
1426.00,0.0048
1425.00,0.0047
1424.00,0.0045
1423.00,0.0043
1422.00,0.0042
1421.00,0.0041
1420.00,0.0040
1419.00,0.0039
1418.00,0.0037
1417.00,0.0036
1416.00,0.0034
1415.00,0.0032
1414.00,0.0029
1413.00,0.0027
1412.00,0.0026
1411.00,0.0024
1410.00,0.0022
1409.00,0.0020
1408.00,0.0018
1407.00,0.0016
1406.00,0.0015
1405.00,0.0013
1404.00,0.0011
1403.00,0.0008
1402.00,0.0005
1401.00,0.0003
1400.00,0.0001
1399.00,-0.0002
1398.00,-0.0004
1397.00,-0.0006
1396.00,-0.0008
1395.00,-0.0010
1394.00,-0.0011
1393.00,-0.0011
1392.00,-0.0009
1391.00,-0.0007
1390.00,-0.0004
1389.00,-0.0002
1388.00,0.0001
1387.00,0.0003
1386.00,0.0006
1385.00,0.0007
1384.00,0.0009
1383.00,0.0010
1382.00,0.0013
1381.00,0.0016
1380.00,0.0020
1379.00,0.0025
1378.00,0.0030
1377.00,0.0035
1376.00,0.0040
1375.00,0.0044
1374.00,0.0047
1373.00,0.0050
1372.00,0.0053
1371.00,0.0056
1370.00,0.0058
1369.00,0.0060
1368.00,0.0062
1367.00,0.0063
1366.00,0.0064
1365.00,0.0066
1364.00,0.0066
1363.00,0.0067
1362.00,0.0067
1361.00,0.0066
1360.00,0.0065
1359.00,0.0065
1358.00,0.0064
1357.00,0.0063
1356.00,0.0063
1355.00,0.0063
1354.00,0.0063
1353.00,0.0064
1352.00,0.0064
1351.00,0.0065
1350.00,0.0066
1349.00,0.0066
1348.00,0.0066
1347.00,0.0065
1346.00,0.0065
1345.00,0.0064
1344.00,0.0063
1343.00,0.0062
1342.00,0.0061
1341.00,0.0061
1340.00,0.0061
1339.00,0.0061
1338.00,0.0061
1337.00,0.0061
1336.00,0.0062
1335.00,0.0063
1334.00,0.0065
1333.00,0.0067
1332.00,0.0070
1331.00,0.0072
1330.00,0.0074
1329.00,0.0076
1328.00,0.0076
1327.00,0.0077
1326.00,0.0076
1325.00,0.0075
1324.00,0.0075
1323.00,0.0074
1322.00,0.0074
1321.00,0.0073
1320.00,0.0073
1319.00,0.0074
1318.00,0.0075
1317.00,0.0076
1316.00,0.0077
1315.00,0.0078
1314.00,0.0079
1313.00,0.0080
1312.00,0.0080
1311.00,0.0080
1310.00,0.0079
1309.00,0.0078
1308.00,0.0077
1307.00,0.0076
1306.00,0.0074
1305.00,0.0073
1304.00,0.0072
1303.00,0.0070
1302.00,0.0069
1301.00,0.0068
1300.00,0.0066
1299.00,0.0065
1298.00,0.0064
1297.00,0.0063
1296.00,0.0063
1295.00,0.0062
1294.00,0.0062
1293.00,0.0062
1292.00,0.0061
1291.00,0.0061
1290.00,0.0060
1289.00,0.0059
1288.00,0.0058
1287.00,0.0057
1286.00,0.0056
1285.00,0.0056
1284.00,0.0055
1283.00,0.0054
1282.00,0.0054
1281.00,0.0053
1280.00,0.0052
1279.00,0.0051
1278.00,0.0049
1277.00,0.0047
1276.00,0.0045
1275.00,0.0042
1274.00,0.0039
1273.00,0.0037
1272.00,0.0034
1271.00,0.0032
1270.00,0.0029
1269.00,0.0027
1268.00,0.0025
1267.00,0.0023
1266.00,0.0022
1265.00,0.0020
1264.00,0.0019
1263.00,0.0018
1262.00,0.0018
1261.00,0.0017
1260.00,0.0016
1259.00,0.0015
1258.00,0.0015
1257.00,0.0014
1256.00,0.0013
1255.00,0.0012
1254.00,0.0011
1253.00,0.0010
1252.00,0.0010
1251.00,0.0010
1250.00,0.0011
1249.00,0.0013
1248.00,0.0014
1247.00,0.0016
1246.00,0.0017
1245.00,0.0018
1244.00,0.0019
1243.00,0.0019
1242.00,0.0019
1241.00,0.0019
1240.00,0.0019
1239.00,0.0019
1238.00,0.0020
1237.00,0.0020
1236.00,0.0021
1235.00,0.0022
1234.00,0.0024
1233.00,0.0025
1232.00,0.0026
1231.00,0.0027
1230.00,0.0029
1229.00,0.0031
1228.00,0.0032
1227.00,0.0033
1226.00,0.0035
1225.00,0.0036
1224.00,0.0037
1223.00,0.0038
1222.00,0.0039
1221.00,0.0040
1220.00,0.0041
1219.00,0.0041
1218.00,0.0042
1217.00,0.0043
1216.00,0.0043
1215.00,0.0044
1214.00,0.0045
1213.00,0.0046
1212.00,0.0047
1211.00,0.0048
1210.00,0.0049
1209.00,0.0050
1208.00,0.0051
1207.00,0.0053
1206.00,0.0055
1205.00,0.0057
1204.00,0.0058
1203.00,0.0060
1202.00,0.0061
1201.00,0.0063
1200.00,0.0064
1199.00,0.0065
1198.00,0.0066
1197.00,0.0067
1196.00,0.0067
1195.00,0.0066
1194.00,0.0066
1193.00,0.0066
1192.00,0.0066
1191.00,0.0065
1190.00,0.0065
1189.00,0.0065
1188.00,0.0065
1187.00,0.0066
1186.00,0.0068
1185.00,0.0071
1184.00,0.0074
1183.00,0.0077
1182.00,0.0078
1181.00,0.0078
1180.00,0.0074
1179.00,0.0068
1178.00,0.0060
1177.00,0.0052
1176.00,0.0044
1175.00,0.0037
1174.00,0.0032
1173.00,0.0028
1172.00,0.0024
1171.00,0.0021
1170.00,0.0019
1169.00,0.0017
1168.00,0.0015
1167.00,0.0013
1166.00,0.0012
1165.00,0.0011
1164.00,0.0010
1163.00,0.0011
1162.00,0.0013
1161.00,0.0015
1160.00,0.0019
1159.00,0.0024
1158.00,0.0030
1157.00,0.0036
1156.00,0.0042
1155.00,0.0044
1154.00,0.0044
1153.00,0.0040
1152.00,0.0033
1151.00,0.0025
1150.00,0.0018
1149.00,0.0012
1148.00,0.0007
1147.00,0.0004
1146.00,0.0002
1145.00,0.0001
1144.00,-0.0000
1143.00,-0.0001
1142.00,-0.0001
1141.00,-0.0001
1140.00,-0.0002
1139.00,-0.0002
1138.00,-0.0002
1137.00,-0.0001
1136.00,-0.0001
1135.00,0.0000
1134.00,0.0001
1133.00,0.0002
1132.00,0.0003
1131.00,0.0004
1130.00,0.0005
1129.00,0.0006
1128.00,0.0008
1127.00,0.0009
1126.00,0.0011
1125.00,0.0012
1124.00,0.0014
1123.00,0.0016
1122.00,0.0018
1121.00,0.0020
1120.00,0.0022
1119.00,0.0024
1118.00,0.0027
1117.00,0.0030
1116.00,0.0033
1115.00,0.0035
1114.00,0.0037
1113.00,0.0039
1112.00,0.0040
1111.00,0.0040
1110.00,0.0041
1109.00,0.0041
1108.00,0.0041
1107.00,0.0041
1106.00,0.0041
1105.00,0.0041
1104.00,0.0040
1103.00,0.0040
1102.00,0.0040
1101.00,0.0040
1100.00,0.0040
1099.00,0.0040
1098.00,0.0040
1097.00,0.0040
1096.00,0.0039
1095.00,0.0039
1094.00,0.0039
1093.00,0.0038
1092.00,0.0038
1091.00,0.0037
1090.00,0.0037
1089.00,0.0038
1088.00,0.0039
1087.00,0.0040
1086.00,0.0042
1085.00,0.0045
1084.00,0.0047
1083.00,0.0049
1082.00,0.0052
1081.00,0.0055
1080.00,0.0058
1079.00,0.0062
1078.00,0.0066
1077.00,0.0070
1076.00,0.0074
1075.00,0.0078
1074.00,0.0084
1073.00,0.0089
1072.00,0.0095
1071.00,0.0100
1070.00,0.0105
1069.00,0.0108
1068.00,0.0109
1067.00,0.0108
1066.00,0.0106
1065.00,0.0103
1064.00,0.0098
1063.00,0.0094
1062.00,0.0089
1061.00,0.0085
1060.00,0.0081
1059.00,0.0078
1058.00,0.0076
1057.00,0.0074
1056.00,0.0073
1055.00,0.0072
1054.00,0.0072
1053.00,0.0071
1052.00,0.0070
1051.00,0.0069
1050.00,0.0069
1049.00,0.0070
1048.00,0.0069
1047.00,0.0070
1046.00,0.0071
1045.00,0.0071
1044.00,0.0071
1043.00,0.0072
1042.00,0.0073
1041.00,0.0074
1040.00,0.0077
1039.00,0.0081
1038.00,0.0088
1037.00,0.0098
1036.00,0.0111
1035.00,0.0128
1034.00,0.0148
1033.00,0.0171
1032.00,0.0194
1031.00,0.0216
1030.00,0.0234
1029.00,0.0247
1028.00,0.0252
1027.00,0.0248
1026.00,0.0238
1025.00,0.0222
1024.00,0.0205
1023.00,0.0189
1022.00,0.0175
1021.00,0.0163
1020.00,0.0153
1019.00,0.0144
1018.00,0.0137
1017.00,0.0131
1016.00,0.0125
1015.00,0.0120
1014.00,0.0117
1013.00,0.0113
1012.00,0.0110
1011.00,0.0107
1010.00,0.0105
1009.00,0.0105
1008.00,0.0104
1007.00,0.0106
1006.00,0.0108
1005.00,0.0111
1004.00,0.0113
1003.00,0.0112
1002.00,0.0110
1001.00,0.0105
1000.00,0.0099
999.00,0.0093
998.00,0.0088
997.00,0.0085
996.00,0.0082
995.00,0.0081
994.00,0.0080
993.00,0.0080
992.00,0.0080
991.00,0.0080
990.00,0.0081
989.00,0.0082
988.00,0.0083
987.00,0.0084
986.00,0.0087
985.00,0.0089
984.00,0.0091
983.00,0.0092
982.00,0.0093
981.00,0.0093
980.00,0.0091
979.00,0.0088
978.00,0.0085
977.00,0.0080
976.00,0.0075
975.00,0.0069
974.00,0.0064
973.00,0.0060
972.00,0.0057
971.00,0.0055
970.00,0.0055
969.00,0.0055
968.00,0.0056
967.00,0.0058
966.00,0.0060
965.00,0.0062
964.00,0.0062
963.00,0.0061
962.00,0.0059
961.00,0.0054
960.00,0.0047
959.00,0.0040
958.00,0.0034
957.00,0.0029
956.00,0.0025
955.00,0.0023
954.00,0.0021
953.00,0.0021
952.00,0.0021
951.00,0.0022
950.00,0.0025
949.00,0.0028
948.00,0.0031
947.00,0.0033
946.00,0.0035
945.00,0.0036
944.00,0.0037
943.00,0.0039
942.00,0.0040
941.00,0.0040
940.00,0.0040
939.00,0.0040
938.00,0.0040
937.00,0.0040
936.00,0.0039
935.00,0.0039
934.00,0.0040
933.00,0.0041
932.00,0.0041
931.00,0.0042
930.00,0.0043
929.00,0.0044
928.00,0.0046
927.00,0.0047
926.00,0.0050
925.00,0.0052
924.00,0.0054
923.00,0.0057
922.00,0.0059
921.00,0.0062
920.00,0.0065
919.00,0.0069
918.00,0.0074
917.00,0.0080
916.00,0.0086
915.00,0.0094
914.00,0.0104
913.00,0.0114
912.00,0.0125
911.00,0.0137
910.00,0.0149
909.00,0.0159
908.00,0.0167
907.00,0.0171
906.00,0.0172
905.00,0.0169
904.00,0.0162
903.00,0.0152
902.00,0.0140
901.00,0.0128
900.00,0.0115
899.00,0.0103
898.00,0.0094
897.00,0.0085
896.00,0.0078
895.00,0.0072
894.00,0.0069
893.00,0.0066
892.00,0.0063
891.00,0.0061
890.00,0.0059
889.00,0.0057
888.00,0.0055
887.00,0.0054
886.00,0.0053
885.00,0.0052
884.00,0.0051
883.00,0.0050
882.00,0.0050
881.00,0.0049
880.00,0.0049
879.00,0.0048
878.00,0.0048
877.00,0.0048
876.00,0.0047
875.00,0.0046
874.00,0.0046
873.00,0.0045
872.00,0.0044
871.00,0.0044
870.00,0.0044
869.00,0.0044
868.00,0.0044
867.00,0.0044
866.00,0.0044
865.00,0.0044
864.00,0.0043
863.00,0.0043
862.00,0.0043
861.00,0.0044
860.00,0.0044
859.00,0.0045
858.00,0.0046
857.00,0.0046
856.00,0.0046
855.00,0.0047
854.00,0.0049
853.00,0.0051
852.00,0.0053
851.00,0.0056
850.00,0.0060
849.00,0.0065
848.00,0.0069
847.00,0.0073
846.00,0.0078
845.00,0.0082
844.00,0.0085
843.00,0.0087
842.00,0.0088
841.00,0.0088
840.00,0.0086
839.00,0.0082
838.00,0.0078
837.00,0.0073
836.00,0.0066
835.00,0.0060
834.00,0.0054
833.00,0.0049
832.00,0.0044
831.00,0.0041
830.00,0.0039
829.00,0.0037
828.00,0.0036
827.00,0.0035
826.00,0.0035
825.00,0.0035
824.00,0.0035
823.00,0.0034
822.00,0.0035
821.00,0.0035
820.00,0.0034
819.00,0.0033
818.00,0.0033
817.00,0.0032
816.00,0.0032
815.00,0.0032
814.00,0.0034
813.00,0.0035
812.00,0.0036
811.00,0.0036
810.00,0.0038
809.00,0.0039
808.00,0.0039
807.00,0.0040
806.00,0.0040
805.00,0.0041
804.00,0.0042
803.00,0.0043
802.00,0.0045
801.00,0.0047
800.00,0.0048
799.00,0.0050
798.00,0.0053
797.00,0.0056
796.00,0.0059
795.00,0.0062
794.00,0.0066
793.00,0.0070
792.00,0.0075
791.00,0.0079
790.00,0.0085
789.00,0.0090
788.00,0.0095
787.00,0.0101
786.00,0.0107
785.00,0.0114
784.00,0.0120
783.00,0.0127
782.00,0.0136
781.00,0.0146
780.00,0.0157
779.00,0.0170
778.00,0.0185
777.00,0.0202
776.00,0.0219
775.00,0.0238
774.00,0.0260
773.00,0.0284
772.00,0.0309
771.00,0.0335
770.00,0.0364
769.00,0.0394
768.00,0.0423
767.00,0.0451
766.00,0.0480
765.00,0.0508
764.00,0.0536
763.00,0.0565
762.00,0.0595
761.00,0.0626
760.00,0.0655
759.00,0.0682
758.00,0.0707
757.00,0.0726
756.00,0.0737
755.00,0.0743
754.00,0.0744
753.00,0.0742
752.00,0.0739
751.00,0.0735
750.00,0.0733
749.00,0.0731
748.00,0.0725
747.00,0.0714
746.00,0.0694
745.00,0.0663
744.00,0.0622
743.00,0.0574
742.00,0.0525
741.00,0.0477
740.00,0.0431
739.00,0.0389
738.00,0.0351
737.00,0.0316
736.00,0.0282
735.00,0.0249
734.00,0.0219
733.00,0.0191
732.00,0.0165
731.00,0.0145
730.00,0.0129
729.00,0.0118
728.00,0.0108
727.00,0.0101
726.00,0.0097
725.00,0.0093
724.00,0.0090
723.00,0.0089
722.00,0.0089
721.00,0.0089
720.00,0.0090
719.00,0.0092
718.00,0.0096
717.00,0.0101
716.00,0.0106
715.00,0.0114
714.00,0.0126
713.00,0.0142
712.00,0.0165
711.00,0.0198
710.00,0.0243
709.00,0.0301
708.00,0.0375
707.00,0.0467
706.00,0.0578
705.00,0.0707
704.00,0.0854
703.00,0.1018
702.00,0.1197
701.00,0.1387
700.00,0.1580
699.00,0.1775
698.00,0.1964
697.00,0.2134
696.00,0.2257
695.00,0.2308
694.00,0.2264
693.00,0.2122
692.00,0.1907
691.00,0.1665
690.00,0.1433
689.00,0.1229
688.00,0.1060
687.00,0.0925
686.00,0.0820
685.00,0.0736
684.00,0.0667
683.00,0.0609
682.00,0.0562
681.00,0.0520
680.00,0.0484
679.00,0.0453
678.00,0.0428
677.00,0.0406
676.00,0.0386
675.00,0.0369
674.00,0.0354
673.00,0.0341
672.00,0.0329
671.00,0.0318
670.00,0.0309
669.00,0.0298
668.00,0.0284
667.00,0.0271
666.00,0.0262
665.00,0.0255
664.00,0.0246
663.00,0.0236
662.00,0.0227
661.00,0.0217
660.00,0.0207
659.00,0.0198
658.00,0.0190
657.00,0.0183
656.00,0.0175
655.00,0.0167
654.00,0.0161
653.00,0.0156
652.00,0.0149
651.00,0.0143
650.00,0.0139
649.00,0.0135
648.00,0.0130
647.00,0.0126
646.00,0.0124
645.00,0.0122
644.00,0.0119
643.00,0.0117
642.00,0.0117
641.00,0.0117
640.00,0.0117
639.00,0.0118
638.00,0.0121
637.00,0.0124
636.00,0.0126
635.00,0.0129
634.00,0.0133
633.00,0.0137
632.00,0.0139
631.00,0.0140
630.00,0.0143
629.00,0.0145
628.00,0.0146
627.00,0.0148
626.00,0.0151
625.00,0.0154
624.00,0.0156
623.00,0.0159
622.00,0.0163
621.00,0.0165
620.00,0.0163
619.00,0.0159
618.00,0.0156
617.00,0.0152
616.00,0.0147
615.00,0.0143
614.00,0.0141
613.00,0.0139
612.00,0.0136
611.00,0.0133
610.00,0.0132
609.00,0.0130
608.00,0.0128
607.00,0.0127
606.00,0.0127
605.00,0.0127
604.00,0.0127
603.00,0.0127
602.00,0.0130
601.00,0.0133
600.00,0.0134
599.00,0.0134
598.00,0.0136
597.00,0.0137
596.00,0.0138
595.00,0.0140
594.00,0.0143
593.00,0.0146
592.00,0.0147
591.00,0.0148
590.00,0.0150
589.00,0.0152
588.00,0.0154
587.00,0.0156
586.00,0.0161
585.00,0.0165
584.00,0.0168
583.00,0.0171
582.00,0.0177
581.00,0.0183
580.00,0.0188
579.00,0.0195
578.00,0.0204
577.00,0.0214
576.00,0.0224
575.00,0.0233
574.00,0.0244
573.00,0.0255
572.00,0.0265
571.00,0.0274
570.00,0.0284
569.00,0.0294
568.00,0.0303
567.00,0.0312
566.00,0.0323
565.00,0.0334
564.00,0.0343
563.00,0.0353
562.00,0.0364
561.00,0.0375
560.00,0.0384
559.00,0.0393
558.00,0.0403
557.00,0.0411
556.00,0.0417
555.00,0.0428
554.00,0.0444
553.00,0.0462
552.00,0.0478
551.00,0.0494
550.00,0.0511
549.00,0.0529
548.00,0.0546
547.00,0.0566
546.00,0.0590
545.00,0.0617
544.00,0.0642
543.00,0.0669
542.00,0.0696
541.00,0.0721
540.00,0.0741
539.00,0.0754
538.00,0.0760
537.00,0.0757
536.00,0.0742
535.00,0.0720
534.00,0.0693
533.00,0.0660
532.00,0.0620
531.00,0.0579
530.00,0.0541
529.00,0.0505
528.00,0.0471
527.00,0.0441
526.00,0.0415
525.00,0.0390
524.00,0.0364
523.00,0.0341
522.00,0.0324
521.00,0.0310
520.00,0.0297
519.00,0.0286
518.00,0.0278
517.00,0.0270
516.00,0.0259
515.00,0.0249
514.00,0.0242
513.00,0.0235
512.00,0.0227
511.00,0.0219
510.00,0.0215
509.00,0.0210
508.00,0.0201
507.00,0.0193
506.00,0.0189
505.00,0.0186
504.00,0.0180
503.00,0.0175
502.00,0.0171
501.00,0.0166
500.00,0.0159
499.00,0.0154
498.00,0.0154
497.00,0.0152
496.00,0.0146
495.00,0.0141
494.00,0.0139
493.00,0.0136
492.00,0.0132
491.00,0.0129
490.00,0.0130
489.00,0.0130
488.00,0.0126
487.00,0.0124
486.00,0.0125
485.00,0.0125
484.00,0.0121
483.00,0.0117
482.00,0.0117
481.00,0.0118
480.00,0.0114
479.00,0.0110
478.00,0.0109
477.00,0.0108
476.00,0.0106
475.00,0.0106
474.00,0.0112
473.00,0.0116
472.00,0.0114
471.00,0.0111
470.00,0.0110
469.00,0.0109
468.00,0.0106
467.00,0.0106
466.00,0.0111
465.00,0.0113
464.00,0.0107
463.00,0.0102
462.00,0.0102
461.00,0.0105
460.00,0.0104
459.00,0.0104
458.00,0.0110
457.00,0.0112
456.00,0.0106
455.00,0.0101
454.00,0.0100
453.00,0.0099
452.00,0.0090
451.00,0.0084
450.00,0.0086
449.00,0.0091
448.00,0.0093
447.00,0.0095
446.00,0.0101
445.00,0.0104
444.00,0.0102
443.00,0.0100
442.00,0.0102
441.00,0.0102
440.00,0.0094
439.00,0.0087
438.00,0.0087
437.00,0.0087
436.00,0.0080
435.00,0.0076
434.00,0.0078
433.00,0.0079
432.00,0.0073
431.00,0.0067
430.00,0.0070
429.00,0.0074
428.00,0.0071
427.00,0.0069
426.00,0.0077
425.00,0.0086
424.00,0.0084
423.00,0.0081
422.00,0.0085
421.00,0.0090
420.00,0.0089
419.00,0.0092
418.00,0.0102
417.00,0.0100
416.00,0.0083
415.00,0.0070
414.00,0.0071
413.00,0.0072
412.00,0.0062
411.00,0.0056
410.00,0.0067
409.00,0.0081
408.00,0.0083
407.00,0.0083
406.00,0.0094
405.00,0.0102
404.00,0.0095
403.00,0.0093
402.00,0.0106
401.00,0.0113
400.00,0.0096
