Created as New Dataset,Sample 753 By YargerLab Date Tuesday, July 01 2025
cm-1,A
4000.00,0.0008
3999.00,0.0008
3998.00,0.0008
3997.00,0.0008
3996.00,0.0008
3995.00,0.0008
3994.00,0.0008
3993.00,0.0008
3992.00,0.0008
3991.00,0.0009
3990.00,0.0008
3989.00,0.0008
3988.00,0.0008
3987.00,0.0008
3986.00,0.0008
3985.00,0.0008
3984.00,0.0008
3983.00,0.0008
3982.00,0.0008
3981.00,0.0008
3980.00,0.0008
3979.00,0.0008
3978.00,0.0008
3977.00,0.0008
3976.00,0.0009
3975.00,0.0009
3974.00,0.0009
3973.00,0.0009
3972.00,0.0009
3971.00,0.0009
3970.00,0.0009
3969.00,0.0009
3968.00,0.0009
3967.00,0.0009
3966.00,0.0009
3965.00,0.0009
3964.00,0.0009
3963.00,0.0009
3962.00,0.0009
3961.00,0.0009
3960.00,0.0009
3959.00,0.0009
3958.00,0.0009
3957.00,0.0009
3956.00,0.0008
3955.00,0.0008
3954.00,0.0008
3953.00,0.0008
3952.00,0.0008
3951.00,0.0009
3950.00,0.0010
3949.00,0.0011
3948.00,0.0011
3947.00,0.0012
3946.00,0.0011
3945.00,0.0011
3944.00,0.0010
3943.00,0.0009
3942.00,0.0009
3941.00,0.0009
3940.00,0.0009
3939.00,0.0009
3938.00,0.0009
3937.00,0.0009
3936.00,0.0010
3935.00,0.0011
3934.00,0.0011
3933.00,0.0012
3932.00,0.0011
3931.00,0.0011
3930.00,0.0010
3929.00,0.0009
3928.00,0.0009
3927.00,0.0009
3926.00,0.0008
3925.00,0.0008
3924.00,0.0008
3923.00,0.0009
3922.00,0.0010
3921.00,0.0010
3920.00,0.0011
3919.00,0.0012
3918.00,0.0012
3917.00,0.0011
3916.00,0.0011
3915.00,0.0010
3914.00,0.0009
3913.00,0.0009
3912.00,0.0008
3911.00,0.0008
3910.00,0.0008
3909.00,0.0008
3908.00,0.0008
3907.00,0.0008
3906.00,0.0009
3905.00,0.0011
3904.00,0.0013
3903.00,0.0015
3902.00,0.0016
3901.00,0.0016
3900.00,0.0015
3899.00,0.0014
3898.00,0.0012
3897.00,0.0012
3896.00,0.0011
3895.00,0.0011
3894.00,0.0010
3893.00,0.0009
3892.00,0.0009
3891.00,0.0009
3890.00,0.0010
3889.00,0.0011
3888.00,0.0012
3887.00,0.0013
3886.00,0.0013
3885.00,0.0012
3884.00,0.0012
3883.00,0.0012
3882.00,0.0013
3881.00,0.0012
3880.00,0.0012
3879.00,0.0012
3878.00,0.0012
3877.00,0.0012
3876.00,0.0012
3875.00,0.0011
3874.00,0.0010
3873.00,0.0010
3872.00,0.0012
3871.00,0.0013
3870.00,0.0014
3869.00,0.0014
3868.00,0.0013
3867.00,0.0014
3866.00,0.0014
3865.00,0.0013
3864.00,0.0012
3863.00,0.0012
3862.00,0.0013
3861.00,0.0014
3860.00,0.0014
3859.00,0.0012
3858.00,0.0011
3857.00,0.0009
3856.00,0.0008
3855.00,0.0008
3854.00,0.0009
3853.00,0.0010
3852.00,0.0011
3851.00,0.0011
3850.00,0.0012
3849.00,0.0012
3848.00,0.0012
3847.00,0.0012
3846.00,0.0012
3845.00,0.0012
3844.00,0.0012
3843.00,0.0012
3842.00,0.0012
3841.00,0.0012
3840.00,0.0012
3839.00,0.0012
3838.00,0.0011
3837.00,0.0011
3836.00,0.0011
3835.00,0.0011
3834.00,0.0011
3833.00,0.0012
3832.00,0.0012
3831.00,0.0012
3830.00,0.0012
3829.00,0.0012
3828.00,0.0012
3827.00,0.0011
3826.00,0.0011
3825.00,0.0011
3824.00,0.0012
3823.00,0.0013
3822.00,0.0013
3821.00,0.0012
3820.00,0.0011
3819.00,0.0011
3818.00,0.0012
3817.00,0.0012
3816.00,0.0012
3815.00,0.0010
3814.00,0.0009
3813.00,0.0009
3812.00,0.0009
3811.00,0.0009
3810.00,0.0009
3809.00,0.0010
3808.00,0.0011
3807.00,0.0011
3806.00,0.0011
3805.00,0.0011
3804.00,0.0011
3803.00,0.0012
3802.00,0.0011
3801.00,0.0010
3800.00,0.0010
3799.00,0.0010
3798.00,0.0011
3797.00,0.0011
3796.00,0.0011
3795.00,0.0010
3794.00,0.0010
3793.00,0.0009
3792.00,0.0008
3791.00,0.0008
3790.00,0.0008
3789.00,0.0008
3788.00,0.0008
3787.00,0.0009
3786.00,0.0009
3785.00,0.0009
3784.00,0.0009
3783.00,0.0009
3782.00,0.0009
3781.00,0.0009
3780.00,0.0009
3779.00,0.0009
3778.00,0.0009
3777.00,0.0009
3776.00,0.0010
3775.00,0.0010
3774.00,0.0009
3773.00,0.0009
3772.00,0.0010
3771.00,0.0011
3770.00,0.0011
3769.00,0.0011
3768.00,0.0012
3767.00,0.0012
3766.00,0.0012
3765.00,0.0012
3764.00,0.0011
3763.00,0.0012
3762.00,0.0012
3761.00,0.0013
3760.00,0.0012
3759.00,0.0012
3758.00,0.0013
3757.00,0.0013
3756.00,0.0014
3755.00,0.0014
3754.00,0.0015
3753.00,0.0016
3752.00,0.0017
3751.00,0.0018
3750.00,0.0019
3749.00,0.0020
3748.00,0.0019
3747.00,0.0018
3746.00,0.0019
3745.00,0.0020
3744.00,0.0019
3743.00,0.0018
3742.00,0.0017
3741.00,0.0018
3740.00,0.0019
3739.00,0.0020
3738.00,0.0021
3737.00,0.0021
3736.00,0.0020
3735.00,0.0018
3734.00,0.0018
3733.00,0.0019
3732.00,0.0018
3731.00,0.0017
3730.00,0.0016
3729.00,0.0016
3728.00,0.0016
3727.00,0.0016
3726.00,0.0016
3725.00,0.0015
3724.00,0.0015
3723.00,0.0015
3722.00,0.0015
3721.00,0.0014
3720.00,0.0013
3719.00,0.0013
3718.00,0.0012
3717.00,0.0012
3716.00,0.0012
3715.00,0.0012
3714.00,0.0013
3713.00,0.0013
3712.00,0.0013
3711.00,0.0013
3710.00,0.0013
3709.00,0.0014
3708.00,0.0013
3707.00,0.0013
3706.00,0.0012
3705.00,0.0011
3704.00,0.0011
3703.00,0.0010
3702.00,0.0010
3701.00,0.0009
3700.00,0.0009
3699.00,0.0009
3698.00,0.0010
3697.00,0.0009
3696.00,0.0009
3695.00,0.0009
3694.00,0.0009
3693.00,0.0008
3692.00,0.0008
3691.00,0.0007
3690.00,0.0007
3689.00,0.0008
3688.00,0.0009
3687.00,0.0009
3686.00,0.0008
3685.00,0.0007
3684.00,0.0007
3683.00,0.0006
3682.00,0.0005
3681.00,0.0004
3680.00,0.0003
3679.00,0.0002
3678.00,0.0002
3677.00,0.0003
3676.00,0.0003
3675.00,0.0002
3674.00,0.0002
3673.00,0.0002
3672.00,0.0002
3671.00,0.0001
3670.00,-0.0000
3669.00,-0.0002
3668.00,-0.0003
3667.00,-0.0004
3666.00,-0.0005
3665.00,-0.0006
3664.00,-0.0007
3663.00,-0.0008
3662.00,-0.0008
3661.00,-0.0008
3660.00,-0.0008
3659.00,-0.0008
3658.00,-0.0007
3657.00,-0.0006
3656.00,-0.0005
3655.00,-0.0005
3654.00,-0.0003
3653.00,-0.0002
3652.00,-0.0000
3651.00,0.0000
3650.00,0.0000
3649.00,0.0001
3648.00,0.0002
3647.00,0.0002
3646.00,0.0002
3645.00,0.0001
3644.00,0.0001
3643.00,0.0000
3642.00,-0.0000
3641.00,-0.0001
3640.00,-0.0001
3639.00,-0.0002
3638.00,-0.0002
3637.00,-0.0001
3636.00,-0.0000
3635.00,0.0002
3634.00,0.0004
3633.00,0.0006
3632.00,0.0008
3631.00,0.0010
3630.00,0.0011
3629.00,0.0012
3628.00,0.0013
3627.00,0.0013
3626.00,0.0013
3625.00,0.0013
3624.00,0.0013
3623.00,0.0013
3622.00,0.0012
3621.00,0.0012
3620.00,0.0012
3619.00,0.0013
3618.00,0.0014
3617.00,0.0015
3616.00,0.0016
3615.00,0.0016
3614.00,0.0016
3613.00,0.0016
3612.00,0.0017
3611.00,0.0018
3610.00,0.0018
3609.00,0.0018
3608.00,0.0017
3607.00,0.0016
3606.00,0.0015
3605.00,0.0014
3604.00,0.0014
3603.00,0.0013
3602.00,0.0013
3601.00,0.0012
3600.00,0.0012
3599.00,0.0013
3598.00,0.0013
3597.00,0.0014
3596.00,0.0014
3595.00,0.0013
3594.00,0.0013
3593.00,0.0014
3592.00,0.0015
3591.00,0.0016
3590.00,0.0017
3589.00,0.0017
3588.00,0.0017
3587.00,0.0016
3586.00,0.0015
3585.00,0.0015
3584.00,0.0015
3583.00,0.0014
3582.00,0.0013
3581.00,0.0013
3580.00,0.0012
3579.00,0.0012
3578.00,0.0012
3577.00,0.0012
3576.00,0.0012
3575.00,0.0012
3574.00,0.0012
3573.00,0.0012
3572.00,0.0013
3571.00,0.0015
3570.00,0.0016
3569.00,0.0017
3568.00,0.0018
3567.00,0.0017
3566.00,0.0017
3565.00,0.0016
3564.00,0.0016
3563.00,0.0016
3562.00,0.0015
3561.00,0.0014
3560.00,0.0013
3559.00,0.0013
3558.00,0.0013
3557.00,0.0013
3556.00,0.0013
3555.00,0.0013
3554.00,0.0013
3553.00,0.0013
3552.00,0.0013
3551.00,0.0014
3550.00,0.0015
3549.00,0.0016
3548.00,0.0017
3547.00,0.0017
3546.00,0.0017
3545.00,0.0016
3544.00,0.0016
3543.00,0.0015
3542.00,0.0015
3541.00,0.0014
3540.00,0.0014
3539.00,0.0014
3538.00,0.0014
3537.00,0.0014
3536.00,0.0014
3535.00,0.0014
3534.00,0.0014
3533.00,0.0014
3532.00,0.0014
3531.00,0.0014
3530.00,0.0015
3529.00,0.0015
3528.00,0.0016
3527.00,0.0017
3526.00,0.0017
3525.00,0.0017
3524.00,0.0017
3523.00,0.0017
3522.00,0.0016
3521.00,0.0016
3520.00,0.0016
3519.00,0.0016
3518.00,0.0015
3517.00,0.0015
3516.00,0.0015
3515.00,0.0015
3514.00,0.0015
3513.00,0.0016
3512.00,0.0016
3511.00,0.0016
3510.00,0.0016
3509.00,0.0016
3508.00,0.0016
3507.00,0.0016
3506.00,0.0016
3505.00,0.0016
3504.00,0.0017
3503.00,0.0017
3502.00,0.0017
3501.00,0.0016
3500.00,0.0016
3499.00,0.0016
3498.00,0.0016
3497.00,0.0016
3496.00,0.0016
3495.00,0.0016
3494.00,0.0016
3493.00,0.0016
3492.00,0.0016
3491.00,0.0016
3490.00,0.0016
3489.00,0.0016
3488.00,0.0016
3487.00,0.0016
3486.00,0.0016
3485.00,0.0016
3484.00,0.0016
3483.00,0.0016
3482.00,0.0016
3481.00,0.0017
3480.00,0.0017
3479.00,0.0017
3478.00,0.0017
3477.00,0.0017
3476.00,0.0017
3475.00,0.0016
3474.00,0.0016
3473.00,0.0016
3472.00,0.0017
3471.00,0.0017
3470.00,0.0017
3469.00,0.0017
3468.00,0.0017
3467.00,0.0017
3466.00,0.0017
3465.00,0.0017
3464.00,0.0017
3463.00,0.0017
3462.00,0.0017
3461.00,0.0017
3460.00,0.0017
3459.00,0.0017
3458.00,0.0017
3457.00,0.0017
3456.00,0.0017
3455.00,0.0017
3454.00,0.0017
3453.00,0.0017
3452.00,0.0017
3451.00,0.0017
3450.00,0.0017
3449.00,0.0017
3448.00,0.0017
3447.00,0.0017
3446.00,0.0018
3445.00,0.0018
3444.00,0.0018
3443.00,0.0018
3442.00,0.0018
3441.00,0.0018
3440.00,0.0018
3439.00,0.0018
3438.00,0.0018
3437.00,0.0018
3436.00,0.0018
3435.00,0.0018
3434.00,0.0018
3433.00,0.0018
3432.00,0.0018
3431.00,0.0018
3430.00,0.0018
3429.00,0.0018
3428.00,0.0018
3427.00,0.0018
3426.00,0.0019
3425.00,0.0019
3424.00,0.0019
3423.00,0.0019
3422.00,0.0019
3421.00,0.0019
3420.00,0.0019
3419.00,0.0019
3418.00,0.0019
3417.00,0.0019
3416.00,0.0019
3415.00,0.0019
3414.00,0.0020
3413.00,0.0020
3412.00,0.0020
3411.00,0.0020
3410.00,0.0019
3409.00,0.0019
3408.00,0.0019
3407.00,0.0019
3406.00,0.0019
3405.00,0.0019
3404.00,0.0019
3403.00,0.0019
3402.00,0.0020
3401.00,0.0020
3400.00,0.0020
3399.00,0.0020
3398.00,0.0020
3397.00,0.0020
3396.00,0.0020
3395.00,0.0020
3394.00,0.0021
3393.00,0.0021
3392.00,0.0021
3391.00,0.0021
3390.00,0.0021
3389.00,0.0021
3388.00,0.0020
3387.00,0.0020
3386.00,0.0020
3385.00,0.0020
3384.00,0.0020
3383.00,0.0020
3382.00,0.0020
3381.00,0.0020
3380.00,0.0020
3379.00,0.0020
3378.00,0.0021
3377.00,0.0021
3376.00,0.0021
3375.00,0.0021
3374.00,0.0021
3373.00,0.0021
3372.00,0.0021
3371.00,0.0021
3370.00,0.0021
3369.00,0.0021
3368.00,0.0021
3367.00,0.0021
3366.00,0.0021
3365.00,0.0021
3364.00,0.0021
3363.00,0.0021
3362.00,0.0022
3361.00,0.0022
3360.00,0.0022
3359.00,0.0022
3358.00,0.0021
3357.00,0.0021
3356.00,0.0021
3355.00,0.0022
3354.00,0.0022
3353.00,0.0022
3352.00,0.0023
3351.00,0.0023
3350.00,0.0022
3349.00,0.0022
3348.00,0.0022
3347.00,0.0022
3346.00,0.0022
3345.00,0.0022
3344.00,0.0022
3343.00,0.0022
3342.00,0.0022
3341.00,0.0022
3340.00,0.0022
3339.00,0.0023
3338.00,0.0023
3337.00,0.0023
3336.00,0.0023
3335.00,0.0022
3334.00,0.0022
3333.00,0.0022
3332.00,0.0022
3331.00,0.0022
3330.00,0.0022
3329.00,0.0022
3328.00,0.0023
3327.00,0.0023
3326.00,0.0023
3325.00,0.0022
3324.00,0.0022
3323.00,0.0022
3322.00,0.0022
3321.00,0.0022
3320.00,0.0022
3319.00,0.0022
3318.00,0.0022
3317.00,0.0022
3316.00,0.0022
3315.00,0.0023
3314.00,0.0023
3313.00,0.0023
3312.00,0.0023
3311.00,0.0023
3310.00,0.0023
3309.00,0.0023
3308.00,0.0023
3307.00,0.0023
3306.00,0.0023
3305.00,0.0023
3304.00,0.0023
3303.00,0.0022
3302.00,0.0022
3301.00,0.0022
3300.00,0.0022
3299.00,0.0022
3298.00,0.0022
3297.00,0.0023
3296.00,0.0023
3295.00,0.0023
3294.00,0.0023
3293.00,0.0023
3292.00,0.0023
3291.00,0.0023
3290.00,0.0023
3289.00,0.0023
3288.00,0.0023
3287.00,0.0023
3286.00,0.0023
3285.00,0.0022
3284.00,0.0022
3283.00,0.0022
3282.00,0.0022
3281.00,0.0022
3280.00,0.0022
3279.00,0.0022
3278.00,0.0022
3277.00,0.0022
3276.00,0.0022
3275.00,0.0022
3274.00,0.0022
3273.00,0.0022
3272.00,0.0022
3271.00,0.0022
3270.00,0.0022
3269.00,0.0021
3268.00,0.0021
3267.00,0.0021
3266.00,0.0021
3265.00,0.0021
3264.00,0.0021
3263.00,0.0021
3262.00,0.0021
3261.00,0.0021
3260.00,0.0020
3259.00,0.0021
3258.00,0.0021
3257.00,0.0021
3256.00,0.0021
3255.00,0.0021
3254.00,0.0021
3253.00,0.0020
3252.00,0.0020
3251.00,0.0020
3250.00,0.0020
3249.00,0.0020
3248.00,0.0020
3247.00,0.0020
3246.00,0.0020
3245.00,0.0020
3244.00,0.0019
3243.00,0.0019
3242.00,0.0019
3241.00,0.0019
3240.00,0.0019
3239.00,0.0019
3238.00,0.0019
3237.00,0.0019
3236.00,0.0019
3235.00,0.0019
3234.00,0.0019
3233.00,0.0018
3232.00,0.0018
3231.00,0.0018
3230.00,0.0018
3229.00,0.0018
3228.00,0.0017
3227.00,0.0017
3226.00,0.0017
3225.00,0.0017
3224.00,0.0017
3223.00,0.0017
3222.00,0.0018
3221.00,0.0018
3220.00,0.0018
3219.00,0.0018
3218.00,0.0018
3217.00,0.0018
3216.00,0.0018
3215.00,0.0018
3214.00,0.0018
3213.00,0.0017
3212.00,0.0017
3211.00,0.0017
3210.00,0.0017
3209.00,0.0017
3208.00,0.0017
3207.00,0.0017
3206.00,0.0017
3205.00,0.0017
3204.00,0.0017
3203.00,0.0017
3202.00,0.0017
3201.00,0.0017
3200.00,0.0016
3199.00,0.0016
3198.00,0.0016
3197.00,0.0016
3196.00,0.0016
3195.00,0.0016
3194.00,0.0016
3193.00,0.0016
3192.00,0.0016
3191.00,0.0016
3190.00,0.0016
3189.00,0.0016
3188.00,0.0016
3187.00,0.0016
3186.00,0.0016
3185.00,0.0016
3184.00,0.0016
3183.00,0.0016
3182.00,0.0016
3181.00,0.0015
3180.00,0.0015
3179.00,0.0015
3178.00,0.0015
3177.00,0.0016
3176.00,0.0016
3175.00,0.0015
3174.00,0.0015
3173.00,0.0015
3172.00,0.0015
3171.00,0.0015
3170.00,0.0015
3169.00,0.0015
3168.00,0.0016
3167.00,0.0016
3166.00,0.0016
3165.00,0.0017
3164.00,0.0017
3163.00,0.0017
3162.00,0.0016
3161.00,0.0016
3160.00,0.0016
3159.00,0.0016
3158.00,0.0016
3157.00,0.0016
3156.00,0.0016
3155.00,0.0016
3154.00,0.0017
3153.00,0.0016
3152.00,0.0016
3151.00,0.0016
3150.00,0.0015
3149.00,0.0015
3148.00,0.0015
3147.00,0.0015
3146.00,0.0015
3145.00,0.0015
3144.00,0.0015
3143.00,0.0015
3142.00,0.0016
3141.00,0.0016
3140.00,0.0016
3139.00,0.0016
3138.00,0.0016
3137.00,0.0015
3136.00,0.0015
3135.00,0.0015
3134.00,0.0015
3133.00,0.0015
3132.00,0.0015
3131.00,0.0016
3130.00,0.0015
3129.00,0.0015
3128.00,0.0015
3127.00,0.0015
3126.00,0.0015
3125.00,0.0016
3124.00,0.0016
3123.00,0.0016
3122.00,0.0017
3121.00,0.0017
3120.00,0.0017
3119.00,0.0017
3118.00,0.0018
3117.00,0.0018
3116.00,0.0018
3115.00,0.0018
3114.00,0.0019
3113.00,0.0019
3112.00,0.0020
3111.00,0.0021
3110.00,0.0022
3109.00,0.0023
3108.00,0.0025
3107.00,0.0026
3106.00,0.0027
3105.00,0.0028
3104.00,0.0029
3103.00,0.0029
3102.00,0.0029
3101.00,0.0029
3100.00,0.0029
3099.00,0.0029
3098.00,0.0028
3097.00,0.0028
3096.00,0.0027
3095.00,0.0028
3094.00,0.0028
3093.00,0.0030
3092.00,0.0031
3091.00,0.0034
3090.00,0.0036
3089.00,0.0039
3088.00,0.0043
3087.00,0.0046
3086.00,0.0050
3085.00,0.0054
3084.00,0.0058
3083.00,0.0060
3082.00,0.0061
3081.00,0.0061
3080.00,0.0059
3079.00,0.0057
3078.00,0.0054
3077.00,0.0052
3076.00,0.0049
3075.00,0.0048
3074.00,0.0046
3073.00,0.0046
3072.00,0.0046
3071.00,0.0047
3070.00,0.0048
3069.00,0.0050
3068.00,0.0053
3067.00,0.0057
3066.00,0.0060
3065.00,0.0065
3064.00,0.0069
3063.00,0.0073
3062.00,0.0077
3061.00,0.0079
3060.00,0.0081
3059.00,0.0081
3058.00,0.0079
3057.00,0.0076
3056.00,0.0073
3055.00,0.0069
3054.00,0.0065
3053.00,0.0061
3052.00,0.0057
3051.00,0.0054
3050.00,0.0051
3049.00,0.0048
3048.00,0.0046
3047.00,0.0045
3046.00,0.0044
3045.00,0.0044
3044.00,0.0044
3043.00,0.0044
3042.00,0.0046
3041.00,0.0047
3040.00,0.0049
3039.00,0.0052
3038.00,0.0055
3037.00,0.0059
3036.00,0.0064
3035.00,0.0070
3034.00,0.0077
3033.00,0.0085
3032.00,0.0095
3031.00,0.0104
3030.00,0.0115
3029.00,0.0125
3028.00,0.0134
3027.00,0.0142
3026.00,0.0147
3025.00,0.0148
3024.00,0.0146
3023.00,0.0139
3022.00,0.0130
3021.00,0.0118
3020.00,0.0105
3019.00,0.0091
3018.00,0.0079
3017.00,0.0067
3016.00,0.0057
3015.00,0.0048
3014.00,0.0040
3013.00,0.0033
3012.00,0.0027
3011.00,0.0021
3010.00,0.0016
3009.00,0.0012
3008.00,0.0007
3007.00,0.0003
3006.00,-0.0001
3005.00,-0.0005
3004.00,-0.0009
3003.00,-0.0013
3002.00,-0.0018
3001.00,-0.0022
3000.00,-0.0028
2999.00,-0.0034
2998.00,-0.0040
2997.00,-0.0046
2996.00,-0.0052
2995.00,-0.0057
2994.00,-0.0062
2993.00,-0.0067
2992.00,-0.0071
2991.00,-0.0074
2990.00,-0.0078
2989.00,-0.0081
2988.00,-0.0084
2987.00,-0.0089
2986.00,-0.0096
2985.00,-0.0108
2984.00,-0.0123
2983.00,-0.0138
2982.00,-0.0149
2981.00,-0.0153
2980.00,-0.0150
2979.00,-0.0142
2978.00,-0.0133
2977.00,-0.0125
2976.00,-0.0119
2975.00,-0.0116
2974.00,-0.0116
2973.00,-0.0117
2972.00,-0.0118
2971.00,-0.0117
2970.00,-0.0112
2969.00,-0.0105
2968.00,-0.0097
2967.00,-0.0091
2966.00,-0.0085
2965.00,-0.0080
2964.00,-0.0075
2963.00,-0.0070
2962.00,-0.0066
2961.00,-0.0062
2960.00,-0.0058
2959.00,-0.0054
2958.00,-0.0051
2957.00,-0.0047
2956.00,-0.0042
2955.00,-0.0038
2954.00,-0.0033
2953.00,-0.0028
2952.00,-0.0023
2951.00,-0.0018
2950.00,-0.0013
2949.00,-0.0008
2948.00,-0.0003
2947.00,0.0003
2946.00,0.0009
2945.00,0.0015
2944.00,0.0021
2943.00,0.0027
2942.00,0.0032
2941.00,0.0037
2940.00,0.0042
2939.00,0.0047
2938.00,0.0053
2937.00,0.0059
2936.00,0.0064
2935.00,0.0070
2934.00,0.0075
2933.00,0.0081
2932.00,0.0086
2931.00,0.0092
2930.00,0.0098
2929.00,0.0104
2928.00,0.0109
2927.00,0.0114
2926.00,0.0118
2925.00,0.0122
2924.00,0.0124
2923.00,0.0126
2922.00,0.0127
2921.00,0.0127
2920.00,0.0127
2919.00,0.0126
2918.00,0.0124
2917.00,0.0122
2916.00,0.0119
2915.00,0.0116
2914.00,0.0112
2913.00,0.0109
2912.00,0.0105
2911.00,0.0101
2910.00,0.0096
2909.00,0.0092
2908.00,0.0087
2907.00,0.0082
2906.00,0.0077
2905.00,0.0072
2904.00,0.0067
2903.00,0.0063
2902.00,0.0058
2901.00,0.0053
2900.00,0.0049
2899.00,0.0045
2898.00,0.0040
2897.00,0.0036
2896.00,0.0032
2895.00,0.0028
2894.00,0.0024
2893.00,0.0020
2892.00,0.0017
2891.00,0.0014
2890.00,0.0011
2889.00,0.0009
2888.00,0.0008
2887.00,0.0007
2886.00,0.0006
2885.00,0.0004
2884.00,0.0004
2883.00,0.0003
2882.00,0.0004
2881.00,0.0006
2880.00,0.0007
2879.00,0.0009
2878.00,0.0010
2877.00,0.0011
2876.00,0.0011
2875.00,0.0011
2874.00,0.0011
2873.00,0.0011
2872.00,0.0011
2871.00,0.0012
2870.00,0.0012
2869.00,0.0013
2868.00,0.0014
2867.00,0.0016
2866.00,0.0018
2865.00,0.0020
2864.00,0.0022
2863.00,0.0024
2862.00,0.0027
2861.00,0.0029
2860.00,0.0032
2859.00,0.0035
2858.00,0.0038
2857.00,0.0042
2856.00,0.0045
2855.00,0.0048
2854.00,0.0051
2853.00,0.0053
2852.00,0.0055
2851.00,0.0058
2850.00,0.0060
2849.00,0.0061
2848.00,0.0062
2847.00,0.0062
2846.00,0.0061
2845.00,0.0060
2844.00,0.0057
2843.00,0.0054
2842.00,0.0051
2841.00,0.0047
2840.00,0.0043
2839.00,0.0039
2838.00,0.0035
2837.00,0.0032
2836.00,0.0029
2835.00,0.0026
2834.00,0.0024
2833.00,0.0022
2832.00,0.0020
2831.00,0.0019
2830.00,0.0018
2829.00,0.0017
2828.00,0.0016
2827.00,0.0016
2826.00,0.0015
2825.00,0.0015
2824.00,0.0015
2823.00,0.0014
2822.00,0.0014
2821.00,0.0014
2820.00,0.0014
2819.00,0.0014
2818.00,0.0014
2817.00,0.0014
2816.00,0.0014
2815.00,0.0014
2814.00,0.0014
2813.00,0.0014
2812.00,0.0014
2811.00,0.0014
2810.00,0.0014
2809.00,0.0013
2808.00,0.0013
2807.00,0.0013
2806.00,0.0013
2805.00,0.0013
2804.00,0.0013
2803.00,0.0013
2802.00,0.0013
2801.00,0.0013
2800.00,0.0013
2799.00,0.0013
2798.00,0.0013
2797.00,0.0013
2796.00,0.0013
2795.00,0.0012
2794.00,0.0012
2793.00,0.0012
2792.00,0.0012
2791.00,0.0012
2790.00,0.0012
2789.00,0.0012
2788.00,0.0012
2787.00,0.0012
2786.00,0.0012
2785.00,0.0012
2784.00,0.0012
2783.00,0.0012
2782.00,0.0012
2781.00,0.0012
2780.00,0.0012
2779.00,0.0012
2778.00,0.0012
2777.00,0.0013
2776.00,0.0013
2775.00,0.0013
2774.00,0.0013
2773.00,0.0012
2772.00,0.0012
2771.00,0.0012
2770.00,0.0011
2769.00,0.0011
2768.00,0.0011
2767.00,0.0011
2766.00,0.0011
2765.00,0.0011
2764.00,0.0011
2763.00,0.0011
2762.00,0.0011
2761.00,0.0011
2760.00,0.0011
2759.00,0.0012
2758.00,0.0012
2757.00,0.0012
2756.00,0.0012
2755.00,0.0012
2754.00,0.0011
2753.00,0.0012
2752.00,0.0012
2751.00,0.0012
2750.00,0.0012
2749.00,0.0011
2748.00,0.0011
2747.00,0.0011
2746.00,0.0012
2745.00,0.0012
2744.00,0.0012
2743.00,0.0012
2742.00,0.0012
2741.00,0.0012
2740.00,0.0012
2739.00,0.0012
2738.00,0.0012
2737.00,0.0012
2736.00,0.0012
2735.00,0.0012
2734.00,0.0012
2733.00,0.0012
2732.00,0.0012
2731.00,0.0012
2730.00,0.0012
2729.00,0.0012
2728.00,0.0012
2727.00,0.0012
2726.00,0.0012
2725.00,0.0012
2724.00,0.0012
2723.00,0.0012
2722.00,0.0012
2721.00,0.0012
2720.00,0.0012
2719.00,0.0012
2718.00,0.0012
2717.00,0.0012
2716.00,0.0012
2715.00,0.0012
2714.00,0.0012
2713.00,0.0013
2712.00,0.0013
2711.00,0.0012
2710.00,0.0012
2709.00,0.0012
2708.00,0.0012
2707.00,0.0013
2706.00,0.0013
2705.00,0.0013
2704.00,0.0013
2703.00,0.0013
2702.00,0.0013
2701.00,0.0013
2700.00,0.0013
2699.00,0.0013
2698.00,0.0013
2697.00,0.0013
2696.00,0.0012
2695.00,0.0012
2694.00,0.0012
2693.00,0.0012
2692.00,0.0012
2691.00,0.0012
2690.00,0.0012
2689.00,0.0012
2688.00,0.0012
2687.00,0.0012
2686.00,0.0012
2685.00,0.0012
2684.00,0.0012
2683.00,0.0012
2682.00,0.0012
2681.00,0.0012
2680.00,0.0012
2679.00,0.0012
2678.00,0.0012
2677.00,0.0012
2676.00,0.0012
2675.00,0.0012
2674.00,0.0011
2673.00,0.0011
2672.00,0.0011
2671.00,0.0011
2670.00,0.0011
2669.00,0.0011
2668.00,0.0011
2667.00,0.0011
2666.00,0.0011
2665.00,0.0012
2664.00,0.0012
2663.00,0.0012
2662.00,0.0013
2661.00,0.0013
2660.00,0.0013
2659.00,0.0014
2658.00,0.0014
2657.00,0.0014
2656.00,0.0014
2655.00,0.0014
2654.00,0.0014
2653.00,0.0014
2652.00,0.0014
2651.00,0.0014
2650.00,0.0014
2649.00,0.0014
2648.00,0.0014
2647.00,0.0014
2646.00,0.0014
2645.00,0.0014
2644.00,0.0015
2643.00,0.0015
2642.00,0.0015
2641.00,0.0015
2640.00,0.0015
2639.00,0.0015
2638.00,0.0015
2637.00,0.0015
2636.00,0.0016
2635.00,0.0016
2634.00,0.0016
2633.00,0.0016
2632.00,0.0015
2631.00,0.0015
2630.00,0.0015
2629.00,0.0015
2628.00,0.0015
2627.00,0.0015
2626.00,0.0015
2625.00,0.0015
2624.00,0.0015
2623.00,0.0015
2622.00,0.0015
2621.00,0.0014
2620.00,0.0014
2619.00,0.0014
2618.00,0.0014
2617.00,0.0014
2616.00,0.0014
2615.00,0.0015
2614.00,0.0015
2613.00,0.0014
2612.00,0.0014
2611.00,0.0014
2610.00,0.0014
2609.00,0.0014
2608.00,0.0014
2607.00,0.0014
2606.00,0.0014
2605.00,0.0015
2604.00,0.0015
2603.00,0.0015
2602.00,0.0015
2601.00,0.0015
2600.00,0.0015
2599.00,0.0015
2598.00,0.0015
2597.00,0.0014
2596.00,0.0014
2595.00,0.0014
2594.00,0.0013
2593.00,0.0013
2592.00,0.0013
2591.00,0.0013
2590.00,0.0014
2589.00,0.0014
2588.00,0.0014
2587.00,0.0014
2586.00,0.0014
2585.00,0.0014
2584.00,0.0014
2583.00,0.0014
2582.00,0.0014
2581.00,0.0014
2580.00,0.0014
2579.00,0.0014
2578.00,0.0014
2577.00,0.0014
2576.00,0.0014
2575.00,0.0014
2574.00,0.0014
2573.00,0.0013
2572.00,0.0012
2571.00,0.0012
2570.00,0.0012
2569.00,0.0013
2568.00,0.0013
2567.00,0.0013
2566.00,0.0013
2565.00,0.0013
2564.00,0.0013
2563.00,0.0013
2562.00,0.0013
2561.00,0.0013
2560.00,0.0013
2559.00,0.0013
2558.00,0.0013
2557.00,0.0012
2556.00,0.0012
2555.00,0.0012
2554.00,0.0012
2553.00,0.0012
2552.00,0.0012
2551.00,0.0012
2550.00,0.0012
2549.00,0.0012
2548.00,0.0012
2547.00,0.0012
2546.00,0.0013
2545.00,0.0013
2544.00,0.0013
2543.00,0.0013
2542.00,0.0012
2541.00,0.0012
2540.00,0.0012
2539.00,0.0012
2538.00,0.0012
2537.00,0.0012
2536.00,0.0012
2535.00,0.0012
2534.00,0.0012
2533.00,0.0012
2532.00,0.0012
2531.00,0.0012
2530.00,0.0012
2529.00,0.0012
2528.00,0.0012
2527.00,0.0012
2526.00,0.0011
2525.00,0.0011
2524.00,0.0011
2523.00,0.0011
2522.00,0.0011
2521.00,0.0012
2520.00,0.0012
2519.00,0.0012
2518.00,0.0011
2517.00,0.0011
2516.00,0.0011
2515.00,0.0011
2514.00,0.0011
2513.00,0.0011
2512.00,0.0011
2511.00,0.0011
2510.00,0.0011
2509.00,0.0011
2508.00,0.0011
2507.00,0.0011
2506.00,0.0011
2505.00,0.0011
2504.00,0.0012
2503.00,0.0012
2502.00,0.0011
2501.00,0.0011
2500.00,0.0011
2499.00,0.0011
2498.00,0.0011
2497.00,0.0011
2496.00,0.0012
2495.00,0.0012
2494.00,0.0012
2493.00,0.0012
2492.00,0.0012
2491.00,0.0011
2490.00,0.0011
2489.00,0.0011
2488.00,0.0011
2487.00,0.0011
2486.00,0.0011
2485.00,0.0011
2484.00,0.0011
2483.00,0.0011
2482.00,0.0011
2481.00,0.0011
2480.00,0.0011
2479.00,0.0011
2478.00,0.0011
2477.00,0.0011
2476.00,0.0011
2475.00,0.0011
2474.00,0.0011
2473.00,0.0011
2472.00,0.0011
2471.00,0.0011
2470.00,0.0011
2469.00,0.0011
2468.00,0.0010
2467.00,0.0010
2466.00,0.0010
2465.00,0.0010
2464.00,0.0010
2463.00,0.0010
2462.00,0.0011
2461.00,0.0011
2460.00,0.0012
2459.00,0.0012
2458.00,0.0012
2457.00,0.0012
2456.00,0.0012
2455.00,0.0012
2454.00,0.0012
2453.00,0.0012
2452.00,0.0012
2451.00,0.0011
2450.00,0.0011
2449.00,0.0011
2448.00,0.0011
2447.00,0.0010
2446.00,0.0010
2445.00,0.0011
2444.00,0.0011
2443.00,0.0011
2442.00,0.0011
2441.00,0.0011
2440.00,0.0010
2439.00,0.0010
2438.00,0.0010
2437.00,0.0010
2436.00,0.0010
2435.00,0.0010
2434.00,0.0010
2433.00,0.0010
2432.00,0.0010
2431.00,0.0010
2430.00,0.0010
2429.00,0.0010
2428.00,0.0010
2427.00,0.0010
2426.00,0.0010
2425.00,0.0009
2424.00,0.0009
2423.00,0.0009
2422.00,0.0009
2421.00,0.0008
2420.00,0.0008
2419.00,0.0008
2418.00,0.0008
2417.00,0.0009
2416.00,0.0009
2415.00,0.0009
2414.00,0.0009
2413.00,0.0009
2412.00,0.0009
2411.00,0.0009
2410.00,0.0009
2409.00,0.0009
2408.00,0.0009
2407.00,0.0008
2406.00,0.0008
2405.00,0.0008
2404.00,0.0008
2403.00,0.0009
2402.00,0.0009
2401.00,0.0009
2400.00,0.0009
2399.00,0.0009
2398.00,0.0008
2397.00,0.0008
2396.00,0.0008
2395.00,0.0008
2394.00,0.0008
2393.00,0.0008
2392.00,0.0008
2391.00,0.0009
2390.00,0.0009
2389.00,0.0008
2388.00,0.0008
2387.00,0.0007
2386.00,0.0007
2385.00,0.0007
2384.00,0.0007
2383.00,0.0007
2382.00,0.0007
2381.00,0.0007
2380.00,0.0006
2379.00,0.0006
2378.00,0.0006
2377.00,0.0006
2376.00,0.0006
2375.00,0.0007
2374.00,0.0007
2373.00,0.0007
2372.00,0.0007
2371.00,0.0006
2370.00,0.0006
2369.00,0.0006
2368.00,0.0007
2367.00,0.0007
2366.00,0.0008
2365.00,0.0008
2364.00,0.0008
2363.00,0.0008
2362.00,0.0008
2361.00,0.0008
2360.00,0.0008
2359.00,0.0008
2358.00,0.0008
2357.00,0.0008
2356.00,0.0008
2355.00,0.0008
2354.00,0.0009
2353.00,0.0009
2352.00,0.0009
2351.00,0.0009
2350.00,0.0009
2349.00,0.0010
2348.00,0.0010
2347.00,0.0010
2346.00,0.0010
2345.00,0.0010
2344.00,0.0010
2343.00,0.0011
2342.00,0.0011
2341.00,0.0011
2340.00,0.0011
2339.00,0.0011
2338.00,0.0011
2337.00,0.0011
2336.00,0.0011
2335.00,0.0011
2334.00,0.0011
2333.00,0.0010
2332.00,0.0010
2331.00,0.0010
2330.00,0.0011
2329.00,0.0012
2328.00,0.0014
2327.00,0.0017
2326.00,0.0019
2325.00,0.0019
2324.00,0.0019
2323.00,0.0017
2322.00,0.0016
2321.00,0.0016
2320.00,0.0016
2319.00,0.0016
2318.00,0.0016
2317.00,0.0017
2316.00,0.0017
2315.00,0.0017
2314.00,0.0016
2313.00,0.0015
2312.00,0.0015
2311.00,0.0015
2310.00,0.0015
2309.00,0.0015
2308.00,0.0015
2307.00,0.0015
2306.00,0.0015
2305.00,0.0015
2304.00,0.0015
2303.00,0.0014
2302.00,0.0014
2301.00,0.0014
2300.00,0.0014
2299.00,0.0014
2298.00,0.0014
2297.00,0.0014
2296.00,0.0015
2295.00,0.0016
2294.00,0.0016
2293.00,0.0017
2292.00,0.0018
2291.00,0.0019
2290.00,0.0019
2289.00,0.0019
2288.00,0.0019
2287.00,0.0019
2286.00,0.0018
2285.00,0.0018
2284.00,0.0017
2283.00,0.0016
2282.00,0.0016
2281.00,0.0016
2280.00,0.0015
2279.00,0.0015
2278.00,0.0015
2277.00,0.0015
2276.00,0.0016
2275.00,0.0016
2274.00,0.0016
2273.00,0.0016
2272.00,0.0015
2271.00,0.0014
2270.00,0.0014
2269.00,0.0014
2268.00,0.0014
2267.00,0.0014
2266.00,0.0014
2265.00,0.0014
2264.00,0.0013
2263.00,0.0014
2262.00,0.0014
2261.00,0.0015
2260.00,0.0015
2259.00,0.0015
2258.00,0.0014
2257.00,0.0014
2256.00,0.0013
2255.00,0.0013
2254.00,0.0012
2253.00,0.0012
2252.00,0.0012
2251.00,0.0012
2250.00,0.0013
2249.00,0.0013
2248.00,0.0014
2247.00,0.0014
2246.00,0.0014
2245.00,0.0014
2244.00,0.0014
2243.00,0.0013
2242.00,0.0014
2241.00,0.0014
2240.00,0.0013
2239.00,0.0013
2238.00,0.0013
2237.00,0.0013
2236.00,0.0013
2235.00,0.0013
2234.00,0.0014
2233.00,0.0014
2232.00,0.0014
2231.00,0.0014
2230.00,0.0013
2229.00,0.0012
2228.00,0.0012
2227.00,0.0011
2226.00,0.0011
2225.00,0.0011
2224.00,0.0011
2223.00,0.0011
2222.00,0.0011
2221.00,0.0011
2220.00,0.0010
2219.00,0.0010
2218.00,0.0011
2217.00,0.0011
2216.00,0.0011
2215.00,0.0011
2214.00,0.0010
2213.00,0.0009
2212.00,0.0009
2211.00,0.0010
2210.00,0.0010
2209.00,0.0011
2208.00,0.0011
2207.00,0.0011
2206.00,0.0012
2205.00,0.0012
2204.00,0.0011
2203.00,0.0011
2202.00,0.0011
2201.00,0.0011
2200.00,0.0011
2199.00,0.0011
2198.00,0.0012
2197.00,0.0013
2196.00,0.0013
2195.00,0.0013
2194.00,0.0013
2193.00,0.0012
2192.00,0.0012
2191.00,0.0012
2190.00,0.0013
2189.00,0.0013
2188.00,0.0012
2187.00,0.0012
2186.00,0.0011
2185.00,0.0010
2184.00,0.0008
2183.00,0.0007
2182.00,0.0007
2181.00,0.0007
2180.00,0.0007
2179.00,0.0008
2178.00,0.0007
2177.00,0.0006
2176.00,0.0005
2175.00,0.0006
2174.00,0.0007
2173.00,0.0008
2172.00,0.0010
2171.00,0.0012
2170.00,0.0015
2169.00,0.0018
2168.00,0.0019
2167.00,0.0019
2166.00,0.0019
2165.00,0.0018
2164.00,0.0019
2163.00,0.0019
2162.00,0.0017
2161.00,0.0010
2160.00,0.0000
2159.00,-0.0008
2158.00,-0.0012
2157.00,-0.0012
2156.00,-0.0009
2155.00,-0.0007
2154.00,-0.0005
2153.00,-0.0004
2152.00,-0.0004
2151.00,-0.0003
2150.00,-0.0003
2149.00,-0.0003
2148.00,-0.0003
2147.00,-0.0003
2146.00,-0.0004
2145.00,-0.0003
2144.00,-0.0002
2143.00,-0.0001
2142.00,0.0000
2141.00,0.0001
2140.00,0.0000
2139.00,0.0000
2138.00,-0.0001
2137.00,-0.0002
2136.00,-0.0004
2135.00,-0.0005
2134.00,-0.0006
2133.00,-0.0005
2132.00,-0.0004
2131.00,-0.0002
2130.00,-0.0001
2129.00,0.0000
2128.00,0.0001
2127.00,0.0002
2126.00,0.0002
2125.00,0.0003
2124.00,0.0004
2123.00,0.0004
2122.00,0.0005
2121.00,0.0006
2120.00,0.0007
2119.00,0.0007
2118.00,0.0007
2117.00,0.0008
2116.00,0.0009
2115.00,0.0010
2114.00,0.0010
2113.00,0.0010
2112.00,0.0009
2111.00,0.0009
2110.00,0.0008
2109.00,0.0008
2108.00,0.0009
2107.00,0.0009
2106.00,0.0008
2105.00,0.0008
2104.00,0.0008
2103.00,0.0009
2102.00,0.0009
2101.00,0.0008
2100.00,0.0007
2099.00,0.0006
2098.00,0.0006
2097.00,0.0005
2096.00,0.0004
2095.00,0.0004
2094.00,0.0004
2093.00,0.0005
2092.00,0.0006
2091.00,0.0007
2090.00,0.0007
2089.00,0.0007
2088.00,0.0007
2087.00,0.0008
2086.00,0.0009
2085.00,0.0009
2084.00,0.0009
2083.00,0.0009
2082.00,0.0010
2081.00,0.0010
2080.00,0.0010
2079.00,0.0009
2078.00,0.0009
2077.00,0.0009
2076.00,0.0010
2075.00,0.0010
2074.00,0.0011
2073.00,0.0011
2072.00,0.0011
2071.00,0.0010
2070.00,0.0010
2069.00,0.0009
2068.00,0.0008
2067.00,0.0007
2066.00,0.0007
2065.00,0.0007
2064.00,0.0007
2063.00,0.0007
2062.00,0.0007
2061.00,0.0007
2060.00,0.0007
2059.00,0.0008
2058.00,0.0010
2057.00,0.0010
2056.00,0.0010
2055.00,0.0009
2054.00,0.0010
2053.00,0.0011
2052.00,0.0013
2051.00,0.0014
2050.00,0.0013
2049.00,0.0011
2048.00,0.0009
2047.00,0.0008
2046.00,0.0009
2045.00,0.0009
2044.00,0.0009
2043.00,0.0009
2042.00,0.0008
2041.00,0.0008
2040.00,0.0008
2039.00,0.0009
2038.00,0.0011
2037.00,0.0012
2036.00,0.0011
2035.00,0.0010
2034.00,0.0009
2033.00,0.0009
2032.00,0.0008
2031.00,0.0008
2030.00,0.0008
2029.00,0.0008
2028.00,0.0007
2027.00,0.0006
2026.00,0.0005
2025.00,0.0005
2024.00,0.0005
2023.00,0.0005
2022.00,0.0005
2021.00,0.0005
2020.00,0.0005
2019.00,0.0005
2018.00,0.0006
2017.00,0.0006
2016.00,0.0005
2015.00,0.0005
2014.00,0.0004
2013.00,0.0004
2012.00,0.0005
2011.00,0.0005
2010.00,0.0005
2009.00,0.0003
2008.00,0.0002
2007.00,0.0000
2006.00,0.0000
2005.00,0.0001
2004.00,0.0002
2003.00,0.0003
2002.00,0.0004
2001.00,0.0006
2000.00,0.0007
1999.00,0.0007
1998.00,0.0007
1997.00,0.0007
1996.00,0.0008
1995.00,0.0008
1994.00,0.0009
1993.00,0.0011
1992.00,0.0012
1991.00,0.0013
1990.00,0.0014
1989.00,0.0014
1988.00,0.0014
1987.00,0.0014
1986.00,0.0013
1985.00,0.0013
1984.00,0.0014
1983.00,0.0016
1982.00,0.0018
1981.00,0.0019
1980.00,0.0017
1979.00,0.0014
1978.00,0.0009
1977.00,0.0006
1976.00,0.0003
1975.00,0.0003
1974.00,0.0003
1973.00,0.0003
1972.00,0.0004
1971.00,0.0004
1970.00,0.0006
1969.00,0.0008
1968.00,0.0009
1967.00,0.0010
1966.00,0.0010
1965.00,0.0010
1964.00,0.0010
1963.00,0.0010
1962.00,0.0011
1961.00,0.0011
1960.00,0.0011
1959.00,0.0011
1958.00,0.0012
1957.00,0.0013
1956.00,0.0014
1955.00,0.0015
1954.00,0.0015
1953.00,0.0015
1952.00,0.0016
1951.00,0.0016
1950.00,0.0017
1949.00,0.0018
1948.00,0.0019
1947.00,0.0021
1946.00,0.0022
1945.00,0.0024
1944.00,0.0026
1943.00,0.0026
1942.00,0.0026
1941.00,0.0025
1940.00,0.0025
1939.00,0.0024
1938.00,0.0023
1937.00,0.0021
1936.00,0.0019
1935.00,0.0017
1934.00,0.0016
1933.00,0.0015
1932.00,0.0013
1931.00,0.0012
1930.00,0.0011
1929.00,0.0010
1928.00,0.0010
1927.00,0.0009
1926.00,0.0009
1925.00,0.0008
1924.00,0.0008
1923.00,0.0008
1922.00,0.0009
1921.00,0.0010
1920.00,0.0011
1919.00,0.0011
1918.00,0.0011
1917.00,0.0010
1916.00,0.0009
1915.00,0.0008
1914.00,0.0008
1913.00,0.0008
1912.00,0.0008
1911.00,0.0007
1910.00,0.0007
1909.00,0.0007
1908.00,0.0007
1907.00,0.0007
1906.00,0.0008
1905.00,0.0008
1904.00,0.0007
1903.00,0.0007
1902.00,0.0008
1901.00,0.0008
1900.00,0.0008
1899.00,0.0009
1898.00,0.0009
1897.00,0.0009
1896.00,0.0009
1895.00,0.0010
1894.00,0.0011
1893.00,0.0012
1892.00,0.0013
1891.00,0.0013
1890.00,0.0014
1889.00,0.0014
1888.00,0.0015
1887.00,0.0016
1886.00,0.0017
1885.00,0.0017
1884.00,0.0018
1883.00,0.0018
1882.00,0.0018
1881.00,0.0019
1880.00,0.0019
1879.00,0.0020
1878.00,0.0020
1877.00,0.0020
1876.00,0.0020
1875.00,0.0021
1874.00,0.0021
1873.00,0.0022
1872.00,0.0023
1871.00,0.0023
1870.00,0.0023
1869.00,0.0023
1868.00,0.0022
1867.00,0.0022
1866.00,0.0022
1865.00,0.0021
1864.00,0.0020
1863.00,0.0019
1862.00,0.0018
1861.00,0.0017
1860.00,0.0015
1859.00,0.0015
1858.00,0.0014
1857.00,0.0013
1856.00,0.0012
1855.00,0.0012
1854.00,0.0011
1853.00,0.0010
1852.00,0.0010
1851.00,0.0010
1850.00,0.0009
1849.00,0.0009
1848.00,0.0009
1847.00,0.0009
1846.00,0.0010
1845.00,0.0011
1844.00,0.0011
1843.00,0.0011
1842.00,0.0010
1841.00,0.0009
1840.00,0.0009
1839.00,0.0008
1838.00,0.0008
1837.00,0.0008
1836.00,0.0008
1835.00,0.0008
1834.00,0.0009
1833.00,0.0009
1832.00,0.0009
1831.00,0.0009
1830.00,0.0009
1829.00,0.0009
1828.00,0.0010
1827.00,0.0011
1826.00,0.0012
1825.00,0.0013
1824.00,0.0014
1823.00,0.0014
1822.00,0.0015
1821.00,0.0015
1820.00,0.0015
1819.00,0.0015
1818.00,0.0015
1817.00,0.0015
1816.00,0.0016
1815.00,0.0016
1814.00,0.0018
1813.00,0.0019
1812.00,0.0020
1811.00,0.0020
1810.00,0.0021
1809.00,0.0022
1808.00,0.0023
1807.00,0.0023
1806.00,0.0024
1805.00,0.0024
1804.00,0.0025
1803.00,0.0025
1802.00,0.0026
1801.00,0.0027
1800.00,0.0027
1799.00,0.0026
1798.00,0.0026
1797.00,0.0026
1796.00,0.0025
1795.00,0.0024
1794.00,0.0023
1793.00,0.0022
1792.00,0.0020
1791.00,0.0019
1790.00,0.0018
1789.00,0.0017
1788.00,0.0016
1787.00,0.0015
1786.00,0.0015
1785.00,0.0014
1784.00,0.0014
1783.00,0.0014
1782.00,0.0013
1781.00,0.0014
1780.00,0.0014
1779.00,0.0014
1778.00,0.0014
1777.00,0.0014
1776.00,0.0014
1775.00,0.0014
1774.00,0.0014
1773.00,0.0014
1772.00,0.0014
1771.00,0.0015
1770.00,0.0016
1769.00,0.0016
1768.00,0.0016
1767.00,0.0016
1766.00,0.0015
1765.00,0.0015
1764.00,0.0015
1763.00,0.0015
1762.00,0.0015
1761.00,0.0016
1760.00,0.0018
1759.00,0.0018
1758.00,0.0019
1757.00,0.0020
1756.00,0.0021
1755.00,0.0023
1754.00,0.0024
1753.00,0.0027
1752.00,0.0029
1751.00,0.0031
1750.00,0.0031
1749.00,0.0031
1748.00,0.0031
1747.00,0.0031
1746.00,0.0031
1745.00,0.0031
1744.00,0.0031
1743.00,0.0031
1742.00,0.0031
1741.00,0.0031
1740.00,0.0032
1739.00,0.0032
1738.00,0.0032
1737.00,0.0032
1736.00,0.0034
1735.00,0.0035
1734.00,0.0035
1733.00,0.0034
1732.00,0.0032
1731.00,0.0031
1730.00,0.0029
1729.00,0.0028
1728.00,0.0027
1727.00,0.0026
1726.00,0.0026
1725.00,0.0026
1724.00,0.0025
1723.00,0.0025
1722.00,0.0025
1721.00,0.0024
1720.00,0.0024
1719.00,0.0024
1718.00,0.0024
1717.00,0.0025
1716.00,0.0024
1715.00,0.0024
1714.00,0.0024
1713.00,0.0023
1712.00,0.0022
1711.00,0.0022
1710.00,0.0022
1709.00,0.0022
1708.00,0.0022
1707.00,0.0021
1706.00,0.0020
1705.00,0.0020
1704.00,0.0020
1703.00,0.0021
1702.00,0.0024
1701.00,0.0027
1700.00,0.0027
1699.00,0.0027
1698.00,0.0027
1697.00,0.0027
1696.00,0.0025
1695.00,0.0024
1694.00,0.0024
1693.00,0.0025
1692.00,0.0025
1691.00,0.0025
1690.00,0.0025
1689.00,0.0026
1688.00,0.0026
1687.00,0.0026
1686.00,0.0027
1685.00,0.0027
1684.00,0.0027
1683.00,0.0028
1682.00,0.0028
1681.00,0.0028
1680.00,0.0028
1679.00,0.0029
1678.00,0.0029
1677.00,0.0030
1676.00,0.0031
1675.00,0.0032
1674.00,0.0032
1673.00,0.0032
1672.00,0.0033
1671.00,0.0033
1670.00,0.0033
1669.00,0.0032
1668.00,0.0032
1667.00,0.0032
1666.00,0.0031
1665.00,0.0031
1664.00,0.0032
1663.00,0.0032
1662.00,0.0032
1661.00,0.0032
1660.00,0.0033
1659.00,0.0033
1658.00,0.0032
1657.00,0.0032
1656.00,0.0031
1655.00,0.0032
1654.00,0.0031
1653.00,0.0030
1652.00,0.0031
1651.00,0.0031
1650.00,0.0031
1649.00,0.0032
1648.00,0.0032
1647.00,0.0032
1646.00,0.0032
1645.00,0.0032
1644.00,0.0032
1643.00,0.0032
1642.00,0.0031
1641.00,0.0031
1640.00,0.0031
1639.00,0.0031
1638.00,0.0031
1637.00,0.0031
1636.00,0.0031
1635.00,0.0031
1634.00,0.0031
1633.00,0.0030
1632.00,0.0029
1631.00,0.0029
1630.00,0.0029
1629.00,0.0029
1628.00,0.0029
1627.00,0.0029
1626.00,0.0029
1625.00,0.0030
1624.00,0.0030
1623.00,0.0030
1622.00,0.0030
1621.00,0.0030
1620.00,0.0030
1619.00,0.0030
1618.00,0.0031
1617.00,0.0031
1616.00,0.0033
1615.00,0.0034
1614.00,0.0036
1613.00,0.0038
1612.00,0.0041
1611.00,0.0045
1610.00,0.0050
1609.00,0.0057
1608.00,0.0067
1607.00,0.0079
1606.00,0.0093
1605.00,0.0109
1604.00,0.0126
1603.00,0.0141
1602.00,0.0151
1601.00,0.0155
1600.00,0.0152
1599.00,0.0142
1598.00,0.0128
1597.00,0.0112
1596.00,0.0098
1595.00,0.0085
1594.00,0.0075
1593.00,0.0067
1592.00,0.0061
1591.00,0.0057
1590.00,0.0053
1589.00,0.0051
1588.00,0.0051
1587.00,0.0054
1586.00,0.0058
1585.00,0.0064
1584.00,0.0068
1583.00,0.0070
1582.00,0.0068
1581.00,0.0062
1580.00,0.0054
1579.00,0.0048
1578.00,0.0042
1577.00,0.0037
1576.00,0.0033
1575.00,0.0032
1574.00,0.0030
1573.00,0.0029
1572.00,0.0028
1571.00,0.0028
1570.00,0.0027
1569.00,0.0027
1568.00,0.0027
1567.00,0.0027
1566.00,0.0027
1565.00,0.0026
1564.00,0.0026
1563.00,0.0025
1562.00,0.0025
1561.00,0.0025
1560.00,0.0026
1559.00,0.0029
1558.00,0.0031
1557.00,0.0031
1556.00,0.0031
1555.00,0.0031
1554.00,0.0032
1553.00,0.0033
1552.00,0.0034
1551.00,0.0034
1550.00,0.0035
1549.00,0.0036
1548.00,0.0037
1547.00,0.0038
1546.00,0.0039
1545.00,0.0040
1544.00,0.0040
1543.00,0.0040
1542.00,0.0041
1541.00,0.0041
1540.00,0.0039
1539.00,0.0039
1538.00,0.0038
1537.00,0.0037
1536.00,0.0036
1535.00,0.0036
1534.00,0.0035
1533.00,0.0033
1532.00,0.0032
1531.00,0.0031
1530.00,0.0031
1529.00,0.0031
1528.00,0.0030
1527.00,0.0030
1526.00,0.0030
1525.00,0.0030
1524.00,0.0030
1523.00,0.0030
1522.00,0.0030
1521.00,0.0030
1520.00,0.0030
1519.00,0.0029
1518.00,0.0030
1517.00,0.0030
1516.00,0.0031
1515.00,0.0031
1514.00,0.0032
1513.00,0.0032
1512.00,0.0032
1511.00,0.0032
1510.00,0.0033
1509.00,0.0034
1508.00,0.0035
1507.00,0.0036
1506.00,0.0037
1505.00,0.0040
1504.00,0.0041
1503.00,0.0044
1502.00,0.0049
1501.00,0.0056
1500.00,0.0067
1499.00,0.0084
1498.00,0.0112
1497.00,0.0157
1496.00,0.0215
1495.00,0.0276
1494.00,0.0329
1493.00,0.0363
1492.00,0.0371
1491.00,0.0344
1490.00,0.0288
1489.00,0.0225
1488.00,0.0174
1487.00,0.0138
1486.00,0.0112
1485.00,0.0093
1484.00,0.0079
1483.00,0.0067
1482.00,0.0058
1481.00,0.0051
1480.00,0.0045
1479.00,0.0041
1478.00,0.0038
1477.00,0.0035
1476.00,0.0032
1475.00,0.0030
1474.00,0.0028
1473.00,0.0028
1472.00,0.0028
1471.00,0.0029
1470.00,0.0030
1469.00,0.0031
1468.00,0.0032
1467.00,0.0032
1466.00,0.0032
1465.00,0.0032
1464.00,0.0033
1463.00,0.0035
1462.00,0.0039
1461.00,0.0045
1460.00,0.0054
1459.00,0.0067
1458.00,0.0093
1457.00,0.0140
1456.00,0.0199
1455.00,0.0256
1454.00,0.0305
1453.00,0.0343
1452.00,0.0364
1451.00,0.0364
1450.00,0.0346
1449.00,0.0319
1448.00,0.0288
1447.00,0.0260
1446.00,0.0237
1445.00,0.0219
1444.00,0.0202
1443.00,0.0185
1442.00,0.0169
1441.00,0.0155
1440.00,0.0144
1439.00,0.0134
1438.00,0.0124
1437.00,0.0111
1436.00,0.0098
1435.00,0.0086
1434.00,0.0077
1433.00,0.0071
1432.00,0.0065
1431.00,0.0058
1430.00,0.0052
1429.00,0.0048
1428.00,0.0045
1427.00,0.0042
1426.00,0.0040
1425.00,0.0038
1424.00,0.0037
1423.00,0.0035
1422.00,0.0034
1421.00,0.0033
1420.00,0.0033
1419.00,0.0031
1418.00,0.0029
1417.00,0.0028
1416.00,0.0027
1415.00,0.0024
1414.00,0.0022
1413.00,0.0020
1412.00,0.0019
1411.00,0.0017
1410.00,0.0015
1409.00,0.0013
1408.00,0.0012
1407.00,0.0010
1406.00,0.0008
1405.00,0.0006
1404.00,0.0004
1403.00,0.0001
1402.00,-0.0001
1401.00,-0.0003
1400.00,-0.0006
1399.00,-0.0008
1398.00,-0.0010
1397.00,-0.0012
1396.00,-0.0015
1395.00,-0.0017
1394.00,-0.0018
1393.00,-0.0018
1392.00,-0.0016
1391.00,-0.0014
1390.00,-0.0012
1389.00,-0.0010
1388.00,-0.0008
1387.00,-0.0006
1386.00,-0.0004
1385.00,-0.0003
1384.00,-0.0002
1383.00,-0.0000
1382.00,0.0002
1381.00,0.0005
1380.00,0.0008
1379.00,0.0013
1378.00,0.0018
1377.00,0.0023
1376.00,0.0027
1375.00,0.0031
1374.00,0.0034
1373.00,0.0037
1372.00,0.0039
1371.00,0.0042
1370.00,0.0045
1369.00,0.0047
1368.00,0.0049
1367.00,0.0050
1366.00,0.0052
1365.00,0.0052
1364.00,0.0053
1363.00,0.0053
1362.00,0.0053
1361.00,0.0053
1360.00,0.0053
1359.00,0.0053
1358.00,0.0053
1357.00,0.0052
1356.00,0.0052
1355.00,0.0052
1354.00,0.0052
1353.00,0.0053
1352.00,0.0053
1351.00,0.0054
1350.00,0.0055
1349.00,0.0055
1348.00,0.0055
1347.00,0.0055
1346.00,0.0054
1345.00,0.0054
1344.00,0.0053
1343.00,0.0052
1342.00,0.0052
1341.00,0.0052
1340.00,0.0052
1339.00,0.0052
1338.00,0.0052
1337.00,0.0053
1336.00,0.0054
1335.00,0.0055
1334.00,0.0057
1333.00,0.0059
1332.00,0.0061
1331.00,0.0063
1330.00,0.0065
1329.00,0.0066
1328.00,0.0067
1327.00,0.0067
1326.00,0.0067
1325.00,0.0067
1324.00,0.0066
1323.00,0.0066
1322.00,0.0065
1321.00,0.0065
1320.00,0.0066
1319.00,0.0066
1318.00,0.0067
1317.00,0.0068
1316.00,0.0069
1315.00,0.0070
1314.00,0.0071
1313.00,0.0071
1312.00,0.0071
1311.00,0.0071
1310.00,0.0071
1309.00,0.0070
1308.00,0.0068
1307.00,0.0067
1306.00,0.0066
1305.00,0.0065
1304.00,0.0064
1303.00,0.0062
1302.00,0.0061
1301.00,0.0060
1300.00,0.0058
1299.00,0.0057
1298.00,0.0056
1297.00,0.0056
1296.00,0.0055
1295.00,0.0055
1294.00,0.0054
1293.00,0.0054
1292.00,0.0053
1291.00,0.0053
1290.00,0.0052
1289.00,0.0052
1288.00,0.0051
1287.00,0.0050
1286.00,0.0049
1285.00,0.0049
1284.00,0.0048
1283.00,0.0048
1282.00,0.0047
1281.00,0.0046
1280.00,0.0046
1279.00,0.0044
1278.00,0.0043
1277.00,0.0041
1276.00,0.0038
1275.00,0.0035
1274.00,0.0033
1273.00,0.0030
1272.00,0.0028
1271.00,0.0025
1270.00,0.0023
1269.00,0.0021
1268.00,0.0019
1267.00,0.0017
1266.00,0.0015
1265.00,0.0014
1264.00,0.0013
1263.00,0.0012
1262.00,0.0011
1261.00,0.0011
1260.00,0.0010
1259.00,0.0009
1258.00,0.0008
1257.00,0.0008
1256.00,0.0007
1255.00,0.0006
1254.00,0.0005
1253.00,0.0004
1252.00,0.0004
1251.00,0.0005
1250.00,0.0006
1249.00,0.0007
1248.00,0.0009
1247.00,0.0010
1246.00,0.0011
1245.00,0.0012
1244.00,0.0013
1243.00,0.0013
1242.00,0.0013
1241.00,0.0013
1240.00,0.0013
1239.00,0.0013
1238.00,0.0014
1237.00,0.0014
1236.00,0.0015
1235.00,0.0017
1234.00,0.0018
1233.00,0.0019
1232.00,0.0021
1231.00,0.0022
1230.00,0.0023
1229.00,0.0025
1228.00,0.0026
1227.00,0.0027
1226.00,0.0029
1225.00,0.0030
1224.00,0.0031
1223.00,0.0032
1222.00,0.0033
1221.00,0.0033
1220.00,0.0034
1219.00,0.0035
1218.00,0.0035
1217.00,0.0036
1216.00,0.0037
1215.00,0.0038
1214.00,0.0038
1213.00,0.0039
1212.00,0.0040
1211.00,0.0041
1210.00,0.0042
1209.00,0.0043
1208.00,0.0044
1207.00,0.0046
1206.00,0.0047
1205.00,0.0049
1204.00,0.0051
1203.00,0.0052
1202.00,0.0053
1201.00,0.0054
1200.00,0.0056
1199.00,0.0057
1198.00,0.0057
1197.00,0.0058
1196.00,0.0057
1195.00,0.0057
1194.00,0.0056
1193.00,0.0056
1192.00,0.0055
1191.00,0.0055
1190.00,0.0054
1189.00,0.0054
1188.00,0.0054
1187.00,0.0055
1186.00,0.0056
1185.00,0.0058
1184.00,0.0061
1183.00,0.0063
1182.00,0.0064
1181.00,0.0063
1180.00,0.0060
1179.00,0.0054
1178.00,0.0047
1177.00,0.0040
1176.00,0.0034
1175.00,0.0028
1174.00,0.0023
1173.00,0.0019
1172.00,0.0016
1171.00,0.0014
1170.00,0.0012
1169.00,0.0011
1168.00,0.0010
1167.00,0.0008
1166.00,0.0007
1165.00,0.0006
1164.00,0.0006
1163.00,0.0007
1162.00,0.0008
1161.00,0.0010
1160.00,0.0013
1159.00,0.0017
1158.00,0.0022
1157.00,0.0027
1156.00,0.0031
1155.00,0.0033
1154.00,0.0033
1153.00,0.0029
1152.00,0.0024
1151.00,0.0017
1150.00,0.0010
1149.00,0.0005
1148.00,0.0001
1147.00,-0.0002
1146.00,-0.0003
1145.00,-0.0004
1144.00,-0.0005
1143.00,-0.0006
1142.00,-0.0007
1141.00,-0.0007
1140.00,-0.0007
1139.00,-0.0007
1138.00,-0.0007
1137.00,-0.0006
1136.00,-0.0005
1135.00,-0.0004
1134.00,-0.0003
1133.00,-0.0002
1132.00,-0.0001
1131.00,-0.0000
1130.00,0.0001
1129.00,0.0003
1128.00,0.0004
1127.00,0.0006
1126.00,0.0008
1125.00,0.0010
1124.00,0.0012
1123.00,0.0014
1122.00,0.0015
1121.00,0.0017
1120.00,0.0020
1119.00,0.0022
1118.00,0.0025
1117.00,0.0028
1116.00,0.0031
1115.00,0.0034
1114.00,0.0036
1113.00,0.0038
1112.00,0.0039
1111.00,0.0040
1110.00,0.0040
1109.00,0.0040
1108.00,0.0040
1107.00,0.0040
1106.00,0.0040
1105.00,0.0040
1104.00,0.0039
1103.00,0.0039
1102.00,0.0038
1101.00,0.0037
1100.00,0.0037
1099.00,0.0037
1098.00,0.0037
1097.00,0.0036
1096.00,0.0036
1095.00,0.0035
1094.00,0.0034
1093.00,0.0034
1092.00,0.0033
1091.00,0.0033
1090.00,0.0032
1089.00,0.0032
1088.00,0.0033
1087.00,0.0034
1086.00,0.0036
1085.00,0.0038
1084.00,0.0040
1083.00,0.0043
1082.00,0.0045
1081.00,0.0048
1080.00,0.0050
1079.00,0.0053
1078.00,0.0057
1077.00,0.0060
1076.00,0.0064
1075.00,0.0068
1074.00,0.0072
1073.00,0.0077
1072.00,0.0082
1071.00,0.0087
1070.00,0.0091
1069.00,0.0095
1068.00,0.0097
1067.00,0.0097
1066.00,0.0096
1065.00,0.0094
1064.00,0.0091
1063.00,0.0088
1062.00,0.0084
1061.00,0.0081
1060.00,0.0078
1059.00,0.0076
1058.00,0.0075
1057.00,0.0074
1056.00,0.0074
1055.00,0.0074
1054.00,0.0073
1053.00,0.0073
1052.00,0.0073
1051.00,0.0072
1050.00,0.0072
1049.00,0.0071
1048.00,0.0071
1047.00,0.0071
1046.00,0.0071
1045.00,0.0072
1044.00,0.0072
1043.00,0.0072
1042.00,0.0073
1041.00,0.0075
1040.00,0.0077
1039.00,0.0081
1038.00,0.0087
1037.00,0.0096
1036.00,0.0107
1035.00,0.0122
1034.00,0.0139
1033.00,0.0159
1032.00,0.0179
1031.00,0.0197
1030.00,0.0213
1029.00,0.0223
1028.00,0.0228
1027.00,0.0225
1026.00,0.0215
1025.00,0.0202
1024.00,0.0187
1023.00,0.0174
1022.00,0.0161
1021.00,0.0151
1020.00,0.0142
1019.00,0.0134
1018.00,0.0127
1017.00,0.0122
1016.00,0.0117
1015.00,0.0113
1014.00,0.0109
1013.00,0.0106
1012.00,0.0104
1011.00,0.0102
1010.00,0.0100
1009.00,0.0099
1008.00,0.0099
1007.00,0.0100
1006.00,0.0102
1005.00,0.0105
1004.00,0.0106
1003.00,0.0106
1002.00,0.0104
1001.00,0.0100
1000.00,0.0095
999.00,0.0090
998.00,0.0085
997.00,0.0082
996.00,0.0080
995.00,0.0078
994.00,0.0078
993.00,0.0077
992.00,0.0077
991.00,0.0077
990.00,0.0078
989.00,0.0079
988.00,0.0080
987.00,0.0081
986.00,0.0083
985.00,0.0084
984.00,0.0086
983.00,0.0087
982.00,0.0088
981.00,0.0087
980.00,0.0085
979.00,0.0082
978.00,0.0078
977.00,0.0073
976.00,0.0068
975.00,0.0063
974.00,0.0058
973.00,0.0053
972.00,0.0049
971.00,0.0047
970.00,0.0046
969.00,0.0045
968.00,0.0046
967.00,0.0047
966.00,0.0049
965.00,0.0050
964.00,0.0051
963.00,0.0050
962.00,0.0047
961.00,0.0043
960.00,0.0037
959.00,0.0031
958.00,0.0025
957.00,0.0020
956.00,0.0017
955.00,0.0015
954.00,0.0014
953.00,0.0014
952.00,0.0014
951.00,0.0015
950.00,0.0017
949.00,0.0020
948.00,0.0022
947.00,0.0024
946.00,0.0025
945.00,0.0027
944.00,0.0028
943.00,0.0030
942.00,0.0031
941.00,0.0032
940.00,0.0032
939.00,0.0032
938.00,0.0032
937.00,0.0032
936.00,0.0032
935.00,0.0032
934.00,0.0033
933.00,0.0033
932.00,0.0034
931.00,0.0035
930.00,0.0037
929.00,0.0038
928.00,0.0040
927.00,0.0042
926.00,0.0044
925.00,0.0046
924.00,0.0048
923.00,0.0050
922.00,0.0053
921.00,0.0055
920.00,0.0058
919.00,0.0061
918.00,0.0065
917.00,0.0070
916.00,0.0076
915.00,0.0083
914.00,0.0091
913.00,0.0100
912.00,0.0109
911.00,0.0120
910.00,0.0129
909.00,0.0138
908.00,0.0145
907.00,0.0148
906.00,0.0149
905.00,0.0146
904.00,0.0140
903.00,0.0132
902.00,0.0122
901.00,0.0112
900.00,0.0101
899.00,0.0091
898.00,0.0083
897.00,0.0076
896.00,0.0070
895.00,0.0065
894.00,0.0062
893.00,0.0059
892.00,0.0057
891.00,0.0055
890.00,0.0054
889.00,0.0052
888.00,0.0050
887.00,0.0048
886.00,0.0047
885.00,0.0046
884.00,0.0045
883.00,0.0044
882.00,0.0043
881.00,0.0043
880.00,0.0043
879.00,0.0042
878.00,0.0042
877.00,0.0041
876.00,0.0041
875.00,0.0040
874.00,0.0040
873.00,0.0039
872.00,0.0039
871.00,0.0039
870.00,0.0038
869.00,0.0038
868.00,0.0038
867.00,0.0038
866.00,0.0038
865.00,0.0038
864.00,0.0038
863.00,0.0038
862.00,0.0038
861.00,0.0038
860.00,0.0038
859.00,0.0039
858.00,0.0040
857.00,0.0041
856.00,0.0041
855.00,0.0041
854.00,0.0042
853.00,0.0044
852.00,0.0046
851.00,0.0049
850.00,0.0052
849.00,0.0056
848.00,0.0060
847.00,0.0064
846.00,0.0068
845.00,0.0071
844.00,0.0074
843.00,0.0075
842.00,0.0076
841.00,0.0075
840.00,0.0073
839.00,0.0070
838.00,0.0066
837.00,0.0062
836.00,0.0056
835.00,0.0051
834.00,0.0046
833.00,0.0041
832.00,0.0038
831.00,0.0035
830.00,0.0033
829.00,0.0031
828.00,0.0030
827.00,0.0029
826.00,0.0029
825.00,0.0029
824.00,0.0028
823.00,0.0028
822.00,0.0028
821.00,0.0028
820.00,0.0028
819.00,0.0027
818.00,0.0027
817.00,0.0027
816.00,0.0027
815.00,0.0028
814.00,0.0029
813.00,0.0029
812.00,0.0030
811.00,0.0030
810.00,0.0031
809.00,0.0032
808.00,0.0032
807.00,0.0033
806.00,0.0033
805.00,0.0034
804.00,0.0034
803.00,0.0036
802.00,0.0037
801.00,0.0039
800.00,0.0041
799.00,0.0043
798.00,0.0045
797.00,0.0047
796.00,0.0050
795.00,0.0052
794.00,0.0055
793.00,0.0059
792.00,0.0063
791.00,0.0068
790.00,0.0072
789.00,0.0077
788.00,0.0082
787.00,0.0087
786.00,0.0092
785.00,0.0098
784.00,0.0104
783.00,0.0110
782.00,0.0117
781.00,0.0125
780.00,0.0135
779.00,0.0145
778.00,0.0158
777.00,0.0171
776.00,0.0186
775.00,0.0203
774.00,0.0220
773.00,0.0240
772.00,0.0261
771.00,0.0284
770.00,0.0308
769.00,0.0332
768.00,0.0356
767.00,0.0380
766.00,0.0403
765.00,0.0425
764.00,0.0449
763.00,0.0473
762.00,0.0497
761.00,0.0521
760.00,0.0545
759.00,0.0567
758.00,0.0587
757.00,0.0602
756.00,0.0612
755.00,0.0616
754.00,0.0617
753.00,0.0615
752.00,0.0612
751.00,0.0609
750.00,0.0607
749.00,0.0606
748.00,0.0602
747.00,0.0595
746.00,0.0579
745.00,0.0554
744.00,0.0520
743.00,0.0481
742.00,0.0440
741.00,0.0399
740.00,0.0361
739.00,0.0326
738.00,0.0294
737.00,0.0264
736.00,0.0237
735.00,0.0210
734.00,0.0185
733.00,0.0161
732.00,0.0140
731.00,0.0123
730.00,0.0110
729.00,0.0101
728.00,0.0094
727.00,0.0088
726.00,0.0084
725.00,0.0082
724.00,0.0080
723.00,0.0080
722.00,0.0080
721.00,0.0080
720.00,0.0082
719.00,0.0084
718.00,0.0086
717.00,0.0090
716.00,0.0095
715.00,0.0101
714.00,0.0111
713.00,0.0125
712.00,0.0144
711.00,0.0172
710.00,0.0209
709.00,0.0258
708.00,0.0319
707.00,0.0394
706.00,0.0484
705.00,0.0589
704.00,0.0707
703.00,0.0838
702.00,0.0980
701.00,0.1129
700.00,0.1281
699.00,0.1432
698.00,0.1577
697.00,0.1707
696.00,0.1803
695.00,0.1843
694.00,0.1812
693.00,0.1706
692.00,0.1543
691.00,0.1356
690.00,0.1172
689.00,0.1009
688.00,0.0873
687.00,0.0764
686.00,0.0678
685.00,0.0610
684.00,0.0553
683.00,0.0507
682.00,0.0467
681.00,0.0434
680.00,0.0404
679.00,0.0379
678.00,0.0357
677.00,0.0338
676.00,0.0322
675.00,0.0309
674.00,0.0297
673.00,0.0287
672.00,0.0278
671.00,0.0270
670.00,0.0262
669.00,0.0253
668.00,0.0242
667.00,0.0232
666.00,0.0225
665.00,0.0219
664.00,0.0212
663.00,0.0204
662.00,0.0195
661.00,0.0186
660.00,0.0178
659.00,0.0170
658.00,0.0164
657.00,0.0157
656.00,0.0151
655.00,0.0145
654.00,0.0139
653.00,0.0133
652.00,0.0128
651.00,0.0124
650.00,0.0120
649.00,0.0118
648.00,0.0115
647.00,0.0112
646.00,0.0109
645.00,0.0107
644.00,0.0105
643.00,0.0104
642.00,0.0103
641.00,0.0104
640.00,0.0104
639.00,0.0105
638.00,0.0106
637.00,0.0109
636.00,0.0111
635.00,0.0115
634.00,0.0118
633.00,0.0121
632.00,0.0124
631.00,0.0127
630.00,0.0129
629.00,0.0130
628.00,0.0132
627.00,0.0133
626.00,0.0135
625.00,0.0137
624.00,0.0139
623.00,0.0142
622.00,0.0145
621.00,0.0147
620.00,0.0147
619.00,0.0144
618.00,0.0140
617.00,0.0135
616.00,0.0132
615.00,0.0130
614.00,0.0128
613.00,0.0126
612.00,0.0124
611.00,0.0123
610.00,0.0121
609.00,0.0119
608.00,0.0117
607.00,0.0115
606.00,0.0114
605.00,0.0114
604.00,0.0115
603.00,0.0116
602.00,0.0117
601.00,0.0119
600.00,0.0119
599.00,0.0120
598.00,0.0121
597.00,0.0122
596.00,0.0124
595.00,0.0126
594.00,0.0129
593.00,0.0131
592.00,0.0133
591.00,0.0133
590.00,0.0134
589.00,0.0136
588.00,0.0138
587.00,0.0141
586.00,0.0144
585.00,0.0146
584.00,0.0149
583.00,0.0152
582.00,0.0156
581.00,0.0161
580.00,0.0167
579.00,0.0174
578.00,0.0181
577.00,0.0189
576.00,0.0198
575.00,0.0206
574.00,0.0213
573.00,0.0221
572.00,0.0230
571.00,0.0238
570.00,0.0246
569.00,0.0254
568.00,0.0263
567.00,0.0272
566.00,0.0282
565.00,0.0291
564.00,0.0300
563.00,0.0308
562.00,0.0317
561.00,0.0325
560.00,0.0334
559.00,0.0342
558.00,0.0351
557.00,0.0359
556.00,0.0369
555.00,0.0380
554.00,0.0390
553.00,0.0400
552.00,0.0412
551.00,0.0424
550.00,0.0436
549.00,0.0450
548.00,0.0466
547.00,0.0483
546.00,0.0503
545.00,0.0523
544.00,0.0544
543.00,0.0566
542.00,0.0587
541.00,0.0607
540.00,0.0625
539.00,0.0637
538.00,0.0641
537.00,0.0637
536.00,0.0625
535.00,0.0606
534.00,0.0581
533.00,0.0553
532.00,0.0523
531.00,0.0490
530.00,0.0457
529.00,0.0426
528.00,0.0399
527.00,0.0374
526.00,0.0351
525.00,0.0329
524.00,0.0309
523.00,0.0292
522.00,0.0277
521.00,0.0265
520.00,0.0255
519.00,0.0245
518.00,0.0236
517.00,0.0228
516.00,0.0220
515.00,0.0214
514.00,0.0208
513.00,0.0203
512.00,0.0198
511.00,0.0191
510.00,0.0185
509.00,0.0179
508.00,0.0173
507.00,0.0168
506.00,0.0164
505.00,0.0160
504.00,0.0155
503.00,0.0151
502.00,0.0147
501.00,0.0142
500.00,0.0137
499.00,0.0134
498.00,0.0131
497.00,0.0128
496.00,0.0124
495.00,0.0120
494.00,0.0118
493.00,0.0117
492.00,0.0117
491.00,0.0117
490.00,0.0116
489.00,0.0114
488.00,0.0112
487.00,0.0110
486.00,0.0109
485.00,0.0108
484.00,0.0105
483.00,0.0103
482.00,0.0103
481.00,0.0103
480.00,0.0102
479.00,0.0099
478.00,0.0096
477.00,0.0092
476.00,0.0091
475.00,0.0092
474.00,0.0095
473.00,0.0097
472.00,0.0097
471.00,0.0096
470.00,0.0093
469.00,0.0092
468.00,0.0092
467.00,0.0093
466.00,0.0093
465.00,0.0093
464.00,0.0092
463.00,0.0091
462.00,0.0089
461.00,0.0088
460.00,0.0088
459.00,0.0089
458.00,0.0091
457.00,0.0093
456.00,0.0091
455.00,0.0088
454.00,0.0085
453.00,0.0083
452.00,0.0080
451.00,0.0077
450.00,0.0075
449.00,0.0074
448.00,0.0074
447.00,0.0075
446.00,0.0076
445.00,0.0077
444.00,0.0079
443.00,0.0081
442.00,0.0082
441.00,0.0082
440.00,0.0080
439.00,0.0077
438.00,0.0075
437.00,0.0074
436.00,0.0072
435.00,0.0070
434.00,0.0066
433.00,0.0062
432.00,0.0058
431.00,0.0056
430.00,0.0056
429.00,0.0059
428.00,0.0060
427.00,0.0061
426.00,0.0062
425.00,0.0064
424.00,0.0067
423.00,0.0069
422.00,0.0072
421.00,0.0079
420.00,0.0089
419.00,0.0096
418.00,0.0090
417.00,0.0074
416.00,0.0061
415.00,0.0055
414.00,0.0055
413.00,0.0055
412.00,0.0052
411.00,0.0050
410.00,0.0053
409.00,0.0059
408.00,0.0065
407.00,0.0066
406.00,0.0064
405.00,0.0062
404.00,0.0064
403.00,0.0069
402.00,0.0074
401.00,0.0074
400.00,0.0071
