Filename	2025_02_13_Water_DSC
Instrument name	DSC2A-00468 (192.168.1.100)
Operator	JLY
rundate	2/13/2025
Sample name	2025_02_13_Water_DSC
proceduresegments	Data Off ; Equilibrate -30.00 °C; Data On ; Ramp 5.00 °C/min to 30.00 °C
[File Parameters]
Run date	2/13/2025 5:50:24 PM
Trios version	5.1.1.46572
Original File Name	
Current File Name	D:\DSC2500\CHM343\2025_02_13_Water_DSC.tri
[Procedure]
Procedure Name	Ice Melting
Sample Name	2025_02_13_Water_DSC
Sample Mass	3.47 mg
Reference Sample Mass	0 mg
Pan Mass	54.2 mg
Pan Number	26
Reference Pan Mass	54 mg
Reference Pan Number	19
Pan Type	Tzero Aluminum Hermetic
Comments	Al Hermetic Sealed Pan, with ref Al pan
Project Name	
Operator	JLY
Test	Custom
Unload Max Temperature	30
Unload Min Temperature	30
Load Max Temperature	30
Load Min Temperature	30
Stop on Gas Flow Error	Yes
[Signal List]
Signal #1	Time (min)
Signal #2	Temperature (°C)
Signal #3	Heat Flow (mW)
Signal #4	Delta T (µV)
Signal #5	Delta Tzero (µV)
Signal #6	Tzero Temperature (°C)
Signal #7	Cell Purge (mL/min)
Signal #8	Heater Temp (°C)
Signal #9	Power Delivered (W)
Signal #10	Reference Junction Temperature (°C)
Signal #11	Flange Temperature (°C)
Signal #12	Heat Flow Phase (rad)
Signal #13	Total Heat Capacity (J/°C)
Signal #14	Heat Capacity (J/°C)
[Configuration]
Company Name	ASU
Instrument Name	DSC2A-00468
Instrument Type	DSC2500
Serial Number	DSC2A-00468
IP	192.168.1.100
Location of Instrument	MRRC
DisplayType	Unknown
Sample Interval 	0.1 s/pt
Selected Heat Flow	T4P
Exotherm Direction	Down
Cell Serial	DRC2-00792
Lid Type	Standard
Cooler	RCS 90
Leave Cooler on at End of Sequence	On
Gas 2	Nitrogen
Gas Selected	Channel 1
Flow Rate	50 mL/min
Secondary Purge	On
Licensed Heat Flow	Heat Flow T4P
Modulation Licensed	Yes
[Versions]
Common IDD Version	1
Cortex Version	VER 2.10.2.31
Driver	5.0.0.6
GDM Version	1.0.3.3
TouchscreenVersion	1.0.0.16145
FEP Version	1.2.1.21
FEP Bootloader	2.0.0.5
AutoSampler Version	2.1.1.26
Auto Sampler Bootloader	2.0.0.5
FCM Version	1.1.0.3
FCM Bootloader	2.0.0.5
[Experiment Logs]
Experiment Log Entry # 1	Data On set to 0
Experiment Log Entry # 3	Equilibrate Segment -30 (C) Started
Experiment Log Entry # 5	Data On set to 1
Experiment Log Entry # 7	Ramp Segment 5 C/min to 30 Started
[Method Log]
Method Log Entry # 1	Data Off
Method Log Entry # 2	Equilibrate -30 °C
Method Log Entry # 3	Data On
Method Log Entry # 4	(Ramp 37599) Ramp 5 °C/minute to 30 °C
Cell Serial	DRC2-00792
[T1 Calibration]
Slope	-0.008529666
Offset	9.636258
Initial Temperature	98.23
GUID	f8bfdadc-4977-4fdf-ba6d-0ba9134940c3
[TZero Calibration]
Date Applied	11/29/2022 4:06:13 PM
Description	From -89.059 °C to 396.009 °C at 20.000°C/min
Gas Type	Nitrogen
Pan Type	None
Source Files 1	C:\Users\yargerlab\Desktop\DSC Data\General\TZero_calibration_11_29_22_2nd(2).tri
Source Files 2	C:\Users\yargerlab\Desktop\DSC Data\General\TZero_calibration_11_29_22_2nd(3).tri
Delta T Offset	13.05235
Delta T Slope	-0.007271007
Delta T0 Offset	-13.69128
Delta T0 Slope	0.06063341
[Temperature Calibration]
Date Applied	11/29/2022 7:12:28 PM
Description	From 106.590 °C to 186.590 °C at 10.000°C/min
Gas Type	Nitrogen
Pan Type	Tzero Aluminum Hermetic
Source Files 1	C:\Users\yargerlab\Desktop\DSC Data\General\Indium(6).tri
Measured 1	157.391
Known 1	156.598
[Cell Constant Calibration]
Date Applied	11/29/2022 7:12:29 PM
Description	From 106.590 °C to 186.590 °C at 10.000°C/min
Gas Type	Nitrogen
Pan Type	Tzero Aluminum Hermetic
Source Files 1	C:\Users\yargerlab\Desktop\DSC Data\General\Indium(6).tri
T4P KCell	1.006051
Onset Slope	63.26126 mW/°C
[Direct Cp Calibration]
Date Applied	11/30/2022 11:04:51 AM
Description	From -79.983 °C to 298.409 °C at 10.000°C/min
Gas Type	Nitrogen
Pan Type	Tzero Aluminum Hermetic
Source Files 1	C:\Users\yargerlab\Desktop\DSC Data\General\Sapphire_Heat_Capacity_11_30_22.tri
[Rev Cp Calibration]
Date Applied	11/30/2022 1:58:51 PM
Description	From -79.996 °C to 292.812 °C at 3.000°C/min
Gas Type	Nitrogen
Pan Type	Tzero Aluminum Hermetic
Source Files 1	C:\Users\yargerlab\Desktop\DSC Data\General\Sapphire_MDSC_Calibration_11_30_22.tri
[step]
Ramp 5.00 °C/min to 30.00 °C
Time	Temperature	Heat Flow (Normalized)
min	°C	W/g
0.00	-29.54	-0.869
0.00	-29.54	-0.953
0.00	-29.54	-0.944
0.01	-29.54	-0.937
0.01	-29.55	-0.930
0.01	-29.55	-0.924
0.01	-29.55	-0.918
0.01	-29.55	-0.913
0.01	-29.56	-0.907
0.01	-29.56	-0.899
0.02	-29.56	-0.892
0.02	-29.56	-0.883
0.02	-29.57	-0.873
0.02	-29.57	-0.863
0.02	-29.57	-0.852
0.03	-29.58	-0.841
0.03	-29.58	-0.830
0.03	-29.58	-0.820
0.03	-29.58	-0.809
0.03	-29.59	-0.799
0.03	-29.59	-0.789
0.03	-29.59	-0.780
0.04	-29.59	-0.771
0.04	-29.60	-0.763
0.04	-29.60	-0.756
0.04	-29.60	-0.749
0.04	-29.60	-0.743
0.05	-29.60	-0.736
0.05	-29.61	-0.730
0.05	-29.61	-0.723
0.05	-29.61	-0.715
0.05	-29.61	-0.708
0.05	-29.61	-0.701
0.05	-29.62	-0.694
0.06	-29.62	-0.688
0.06	-29.62	-0.681
0.06	-29.62	-0.674
0.06	-29.62	-0.667
0.06	-29.62	-0.661
0.07	-29.62	-0.654
0.07	-29.63	-0.648
0.07	-29.63	-0.643
0.07	-29.63	-0.637
0.07	-29.63	-0.633
0.07	-29.63	-0.628
0.08	-29.63	-0.624
0.08	-29.63	-0.621
0.08	-29.63	-0.617
0.08	-29.63	-0.614
0.08	-29.63	-0.611
0.08	-29.63	-0.607
0.08	-29.63	-0.605
0.09	-29.63	-0.602
0.09	-29.63	-0.599
0.09	-29.63	-0.597
0.09	-29.63	-0.595
0.09	-29.63	-0.591
0.09	-29.63	-0.587
0.10	-29.63	-0.582
0.10	-29.63	-0.578
0.10	-29.63	-0.573
0.10	-29.63	-0.568
0.10	-29.63	-0.563
0.11	-29.63	-0.559
0.11	-29.63	-0.554
0.11	-29.62	-0.550
0.11	-29.62	-0.546
0.11	-29.62	-0.543
0.11	-29.62	-0.540
0.12	-29.62	-0.537
0.12	-29.62	-0.534
0.12	-29.62	-0.531
0.12	-29.62	-0.529
0.12	-29.61	-0.526
0.12	-29.61	-0.525
0.13	-29.61	-0.523
0.13	-29.61	-0.522
0.13	-29.60	-0.519
0.13	-29.60	-0.517
0.13	-29.60	-0.514
0.13	-29.60	-0.511
0.14	-29.59	-0.508
0.14	-29.59	-0.505
0.14	-29.59	-0.503
0.14	-29.59	-0.501
0.14	-29.58	-0.499
0.14	-29.58	-0.498
0.14	-29.58	-0.497
0.15	-29.57	-0.495
0.15	-29.57	-0.493
0.15	-29.57	-0.491
0.15	-29.56	-0.489
0.15	-29.56	-0.486
0.16	-29.55	-0.482
0.16	-29.55	-0.479
0.16	-29.55	-0.476
0.16	-29.54	-0.473
0.16	-29.54	-0.472
0.16	-29.54	-0.470
0.16	-29.53	-0.469
0.17	-29.53	-0.467
0.17	-29.52	-0.466
0.17	-29.52	-0.464
0.17	-29.51	-0.462
0.17	-29.51	-0.457
0.18	-29.50	-0.453
0.18	-29.50	-0.448
0.18	-29.50	-0.442
0.18	-29.49	-0.437
0.18	-29.49	-0.432
0.18	-29.48	-0.427
0.19	-29.48	-0.423
0.19	-29.47	-0.420
0.19	-29.47	-0.417
0.19	-29.46	-0.414
0.19	-29.46	-0.413
0.19	-29.45	-0.412
0.19	-29.45	-0.411
0.20	-29.44	-0.409
0.20	-29.44	-0.407
0.20	-29.43	-0.406
0.20	-29.43	-0.403
0.20	-29.42	-0.399
0.21	-29.42	-0.393
0.21	-29.41	-0.387
0.21	-29.41	-0.380
0.21	-29.40	-0.376
0.21	-29.40	-0.373
0.21	-29.39	-0.370
0.21	-29.38	-0.369
0.22	-29.38	-0.366
0.22	-29.37	-0.364
0.22	-29.37	-0.362
0.22	-29.36	-0.358
0.22	-29.36	-0.353
0.23	-29.35	-0.347
0.23	-29.35	-0.340
0.23	-29.34	-0.333
0.23	-29.33	-0.327
0.23	-29.33	-0.320
0.23	-29.32	-0.315
0.24	-29.32	-0.309
0.24	-29.31	-0.304
0.24	-29.30	-0.299
0.24	-29.30	-0.295
0.24	-29.29	-0.291
0.24	-29.29	-0.286
0.24	-29.28	-0.282
0.25	-29.28	-0.279
0.25	-29.27	-0.275
0.25	-29.26	-0.271
0.25	-29.26	-0.269
0.25	-29.25	-0.265
0.26	-29.25	-0.263
0.26	-29.24	-0.261
0.26	-29.23	-0.257
0.26	-29.23	-0.253
0.26	-29.22	-0.250
0.26	-29.22	-0.245
0.26	-29.21	-0.242
0.27	-29.20	-0.237
0.27	-29.20	-0.232
0.27	-29.19	-0.228
0.27	-29.19	-0.223
0.27	-29.18	-0.219
0.28	-29.17	-0.215
0.28	-29.17	-0.211
0.28	-29.16	-0.208
0.28	-29.15	-0.204
0.28	-29.15	-0.202
0.28	-29.14	-0.199
0.29	-29.14	-0.196
0.29	-29.13	-0.193
0.29	-29.12	-0.189
0.29	-29.12	-0.186
0.29	-29.11	-0.183
0.29	-29.10	-0.180
0.30	-29.10	-0.178
0.30	-29.09	-0.177
0.30	-29.09	-0.176
0.30	-29.08	-0.176
0.30	-29.07	-0.176
0.30	-29.06	-0.175
0.30	-29.06	-0.175
0.31	-29.05	-0.174
0.31	-29.04	-0.171
0.31	-29.04	-0.169
0.31	-29.03	-0.165
0.31	-29.02	-0.161
0.31	-29.02	-0.158
0.32	-29.01	-0.156
0.32	-29.01	-0.154
0.32	-29.00	-0.151
0.32	-28.99	-0.148
0.32	-28.98	-0.146
0.33	-28.98	-0.143
0.33	-28.97	-0.140
0.33	-28.96	-0.138
0.33	-28.96	-0.135
0.33	-28.95	-0.133
0.33	-28.94	-0.130
0.34	-28.94	-0.128
0.34	-28.93	-0.126
0.34	-28.92	-0.123
0.34	-28.92	-0.120
0.34	-28.91	-0.118
0.34	-28.90	-0.116
0.35	-28.89	-0.113
0.35	-28.89	-0.111
0.35	-28.88	-0.109
0.35	-28.87	-0.107
0.35	-28.87	-0.105
0.35	-28.86	-0.102
0.35	-28.85	-0.100
0.36	-28.85	-0.098
0.36	-28.84	-0.095
0.36	-28.83	-0.093
0.36	-28.83	-0.091
0.36	-28.82	-0.089
0.36	-28.81	-0.087
0.37	-28.80	-0.085
0.37	-28.80	-0.083
0.37	-28.79	-0.082
0.37	-28.78	-0.080
0.37	-28.78	-0.078
0.38	-28.77	-0.076
0.38	-28.76	-0.075
0.38	-28.75	-0.073
0.38	-28.75	-0.072
0.38	-28.74	-0.072
0.38	-28.73	-0.071
0.39	-28.73	-0.070
0.39	-28.72	-0.068
0.39	-28.71	-0.067
0.39	-28.70	-0.065
0.39	-28.70	-0.063
0.39	-28.69	-0.060
0.40	-28.68	-0.058
0.40	-28.67	-0.056
0.40	-28.67	-0.054
0.40	-28.66	-0.052
0.40	-28.65	-0.051
0.40	-28.65	-0.049
0.40	-28.64	-0.048
0.41	-28.63	-0.047
0.41	-28.62	-0.045
0.41	-28.62	-0.044
0.41	-28.61	-0.043
0.41	-28.60	-0.042
0.41	-28.59	-0.041
0.42	-28.59	-0.041
0.42	-28.58	-0.040
0.42	-28.57	-0.039
0.42	-28.57	-0.038
0.42	-28.56	-0.037
0.43	-28.55	-0.035
0.43	-28.54	-0.034
0.43	-28.53	-0.032
0.43	-28.53	-0.031
0.43	-28.52	-0.030
0.43	-28.51	-0.028
0.44	-28.50	-0.027
0.44	-28.50	-0.027
0.44	-28.49	-0.027
0.44	-28.48	-0.026
0.44	-28.48	-0.025
0.44	-28.47	-0.023
0.45	-28.46	-0.021
0.45	-28.45	-0.019
0.45	-28.44	-0.019
0.45	-28.44	-0.018
0.45	-28.43	-0.018
0.45	-28.42	-0.016
0.45	-28.41	-0.016
0.46	-28.41	-0.015
0.46	-28.40	-0.015
0.46	-28.39	-0.015
0.46	-28.38	-0.014
0.46	-28.38	-0.014
0.46	-28.37	-0.013
0.47	-28.36	-0.012
0.47	-28.35	-0.011
0.47	-28.35	-0.010
0.47	-28.34	-0.009
0.47	-28.33	-0.008
0.48	-28.32	-0.007
0.48	-28.32	-0.006
0.48	-28.31	-0.006
0.48	-28.30	-0.005
0.48	-28.29	-0.004
0.48	-28.29	-0.003
0.49	-28.28	-0.001
0.49	-28.27	-0.001
0.49	-28.26	0.000
0.49	-28.25	0.001
0.49	-28.25	0.002
0.49	-28.24	0.003
0.50	-28.23	0.003
0.50	-28.22	0.004
0.50	-28.22	0.005
0.50	-28.21	0.007
0.50	-28.20	0.008
0.50	-28.19	0.009
0.50	-28.18	0.010
0.51	-28.18	0.011
0.51	-28.17	0.012
0.51	-28.16	0.012
0.51	-28.15	0.013
0.51	-28.15	0.013
0.51	-28.14	0.013
0.52	-28.13	0.014
0.52	-28.12	0.014
0.52	-28.11	0.015
0.52	-28.11	0.015
0.52	-28.10	0.016
0.53	-28.09	0.016
0.53	-28.08	0.017
0.53	-28.08	0.018
0.53	-28.07	0.019
0.53	-28.06	0.020
0.53	-28.05	0.021
0.53	-28.04	0.022
0.54	-28.04	0.023
0.54	-28.03	0.023
0.54	-28.02	0.024
0.54	-28.01	0.024
0.54	-28.01	0.025
0.55	-28.00	0.025
0.55	-27.99	0.026
0.55	-27.98	0.027
0.55	-27.97	0.028
0.55	-27.97	0.029
0.55	-27.96	0.030
0.55	-27.95	0.030
0.56	-27.94	0.031
0.56	-27.94	0.031
0.56	-27.93	0.031
0.56	-27.92	0.032
0.56	-27.91	0.032
0.57	-27.90	0.032
0.57	-27.90	0.033
0.57	-27.89	0.033
0.57	-27.88	0.034
0.57	-27.87	0.035
0.57	-27.86	0.035
0.58	-27.86	0.036
0.58	-27.85	0.037
0.58	-27.84	0.037
0.58	-27.83	0.037
0.58	-27.83	0.038
0.58	-27.82	0.038
0.58	-27.81	0.038
0.59	-27.80	0.038
0.59	-27.79	0.038
0.59	-27.78	0.039
0.59	-27.78	0.039
0.59	-27.77	0.040
0.60	-27.76	0.040
0.60	-27.75	0.041
0.60	-27.75	0.041
0.60	-27.74	0.042
0.60	-27.73	0.042
0.60	-27.72	0.043
0.60	-27.71	0.043
0.61	-27.71	0.043
0.61	-27.70	0.044
0.61	-27.69	0.044
0.61	-27.68	0.044
0.61	-27.67	0.045
0.62	-27.67	0.045
0.62	-27.66	0.044
0.62	-27.65	0.043
0.62	-27.64	0.043
0.62	-27.63	0.043
0.62	-27.63	0.042
0.63	-27.62	0.042
0.63	-27.61	0.041
0.63	-27.60	0.041
0.63	-27.59	0.041
0.63	-27.59	0.041
0.63	-27.58	0.041
0.63	-27.57	0.041
0.64	-27.56	0.041
0.64	-27.55	0.041
0.64	-27.55	0.041
0.64	-27.54	0.042
0.64	-27.53	0.042
0.65	-27.52	0.042
0.65	-27.51	0.042
0.65	-27.51	0.042
0.65	-27.50	0.042
0.65	-27.49	0.043
0.65	-27.48	0.043
0.65	-27.47	0.043
0.66	-27.47	0.043
0.66	-27.46	0.043
0.66	-27.45	0.044
0.66	-27.44	0.044
0.66	-27.43	0.045
0.67	-27.43	0.046
0.67	-27.42	0.047
0.67	-27.41	0.047
0.67	-27.40	0.048
0.67	-27.39	0.048
0.67	-27.39	0.048
0.68	-27.38	0.048
0.68	-27.37	0.048
0.68	-27.36	0.049
0.68	-27.35	0.049
0.68	-27.35	0.049
0.68	-27.34	0.050
0.68	-27.33	0.050
0.69	-27.32	0.051
0.69	-27.31	0.051
0.69	-27.31	0.052
0.69	-27.30	0.052
0.69	-27.29	0.052
0.70	-27.28	0.052
0.70	-27.27	0.053
0.70	-27.26	0.053
0.70	-27.26	0.054
0.70	-27.25	0.054
0.70	-27.24	0.054
0.70	-27.23	0.055
0.71	-27.22	0.056
0.71	-27.22	0.056
0.71	-27.21	0.057
0.71	-27.20	0.057
0.71	-27.19	0.057
0.72	-27.18	0.058
0.72	-27.18	0.058
0.72	-27.17	0.059
0.72	-27.16	0.059
0.72	-27.15	0.060
0.72	-27.14	0.060
0.73	-27.14	0.061
0.73	-27.13	0.061
0.73	-27.12	0.062
0.73	-27.11	0.062
0.73	-27.10	0.062
0.73	-27.10	0.062
0.73	-27.09	0.062
0.74	-27.08	0.062
0.74	-27.07	0.062
0.74	-27.06	0.062
0.74	-27.05	0.063
0.74	-27.05	0.063
0.75	-27.04	0.063
0.75	-27.03	0.064
0.75	-27.02	0.064
0.75	-27.01	0.064
0.75	-27.01	0.064
0.75	-27.00	0.064
0.75	-26.99	0.064
0.76	-26.98	0.064
0.76	-26.97	0.064
0.76	-26.97	0.065
0.76	-26.96	0.065
0.76	-26.95	0.065
0.77	-26.94	0.065
0.77	-26.93	0.065
0.77	-26.93	0.065
0.77	-26.92	0.066
0.77	-26.91	0.066
0.77	-26.90	0.066
0.78	-26.89	0.066
0.78	-26.88	0.066
0.78	-26.88	0.066
0.78	-26.87	0.066
0.78	-26.86	0.067
0.78	-26.85	0.067
0.78	-26.84	0.067
0.79	-26.84	0.067
0.79	-26.83	0.067
0.79	-26.82	0.067
0.79	-26.81	0.067
0.79	-26.80	0.067
0.80	-26.80	0.067
0.80	-26.79	0.067
0.80	-26.78	0.067
0.80	-26.77	0.067
0.80	-26.76	0.067
0.80	-26.76	0.067
0.80	-26.75	0.067
0.81	-26.74	0.067
0.81	-26.73	0.067
0.81	-26.72	0.067
0.81	-26.71	0.067
0.81	-26.71	0.068
0.82	-26.70	0.068
0.82	-26.69	0.068
0.82	-26.68	0.069
0.82	-26.67	0.069
0.82	-26.67	0.069
0.82	-26.66	0.069
0.83	-26.65	0.070
0.83	-26.64	0.070
0.83	-26.63	0.070
0.83	-26.63	0.070
0.83	-26.62	0.070
0.83	-26.61	0.070
0.83	-26.60	0.070
0.84	-26.59	0.070
0.84	-26.58	0.070
0.84	-26.58	0.070
0.84	-26.57	0.070
0.84	-26.56	0.070
0.85	-26.55	0.070
0.85	-26.55	0.071
0.85	-26.54	0.071
0.85	-26.53	0.071
0.85	-26.52	0.071
0.85	-26.51	0.071
0.85	-26.50	0.071
0.86	-26.50	0.071
0.86	-26.49	0.071
0.86	-26.48	0.071
0.86	-26.47	0.071
0.86	-26.46	0.071
0.87	-26.45	0.071
0.87	-26.45	0.072
0.87	-26.44	0.072
0.87	-26.43	0.072
0.87	-26.42	0.072
0.87	-26.41	0.072
0.88	-26.41	0.072
0.88	-26.40	0.072
0.88	-26.39	0.072
0.88	-26.38	0.072
0.88	-26.37	0.072
0.88	-26.36	0.072
0.88	-26.36	0.072
0.89	-26.35	0.072
0.89	-26.34	0.072
0.89	-26.33	0.072
0.89	-26.32	0.072
0.89	-26.32	0.072
0.90	-26.31	0.072
0.90	-26.30	0.073
0.90	-26.29	0.073
0.90	-26.28	0.073
0.90	-26.28	0.073
0.90	-26.27	0.073
0.90	-26.26	0.073
0.91	-26.25	0.073
0.91	-26.24	0.073
0.91	-26.23	0.073
0.91	-26.22	0.073
0.91	-26.22	0.073
0.92	-26.21	0.073
0.92	-26.20	0.073
0.92	-26.19	0.074
0.92	-26.18	0.074
0.92	-26.18	0.074
0.92	-26.17	0.074
0.93	-26.16	0.074
0.93	-26.15	0.074
0.93	-26.14	0.074
0.93	-26.14	0.075
0.93	-26.13	0.075
0.93	-26.12	0.075
0.93	-26.11	0.075
0.94	-26.10	0.075
0.94	-26.09	0.076
0.94	-26.09	0.076
0.94	-26.08	0.076
0.94	-26.07	0.076
0.95	-26.06	0.076
0.95	-26.05	0.076
0.95	-26.05	0.076
0.95	-26.04	0.076
0.95	-26.03	0.076
0.95	-26.02	0.077
0.95	-26.01	0.077
0.96	-26.01	0.077
0.96	-26.00	0.077
0.96	-25.99	0.077
0.96	-25.98	0.077
0.96	-25.97	0.077
0.97	-25.96	0.078
0.97	-25.96	0.078
0.97	-25.95	0.078
0.97	-25.94	0.079
0.97	-25.93	0.079
0.97	-25.92	0.079
0.98	-25.91	0.079
0.98	-25.91	0.079
0.98	-25.90	0.079
0.98	-25.89	0.079
0.98	-25.88	0.079
0.98	-25.87	0.079
0.98	-25.86	0.079
0.99	-25.86	0.079
0.99	-25.85	0.079
0.99	-25.84	0.080
0.99	-25.83	0.080
0.99	-25.82	0.080
1.00	-25.82	0.080
1.00	-25.81	0.080
1.00	-25.80	0.080
1.00	-25.79	0.080
1.00	-25.78	0.080
1.00	-25.77	0.080
1.00	-25.77	0.080
1.01	-25.76	0.080
1.01	-25.75	0.080
1.01	-25.74	0.081
1.01	-25.73	0.081
1.01	-25.73	0.081
1.02	-25.72	0.081
1.02	-25.71	0.081
1.02	-25.70	0.081
1.02	-25.69	0.081
1.02	-25.68	0.081
1.02	-25.68	0.081
1.03	-25.67	0.081
1.03	-25.66	0.081
1.03	-25.65	0.081
1.03	-25.64	0.081
1.03	-25.64	0.081
1.03	-25.63	0.081
1.03	-25.62	0.081
1.04	-25.61	0.081
1.04	-25.60	0.082
1.04	-25.59	0.082
1.04	-25.59	0.082
1.04	-25.58	0.082
1.05	-25.57	0.082
1.05	-25.56	0.082
1.05	-25.55	0.082
1.05	-25.54	0.082
1.05	-25.54	0.082
1.05	-25.53	0.082
1.05	-25.52	0.082
1.06	-25.51	0.082
1.06	-25.50	0.082
1.06	-25.49	0.082
1.06	-25.49	0.082
1.06	-25.48	0.082
1.07	-25.47	0.082
1.07	-25.46	0.082
1.07	-25.46	0.082
1.07	-25.45	0.083
1.07	-25.44	0.083
1.07	-25.43	0.083
1.08	-25.42	0.083
1.08	-25.41	0.083
1.08	-25.40	0.083
1.08	-25.40	0.083
1.08	-25.39	0.083
1.08	-25.38	0.083
1.08	-25.37	0.083
1.09	-25.36	0.083
1.09	-25.35	0.083
1.09	-25.35	0.083
1.09	-25.34	0.083
1.09	-25.33	0.083
1.09	-25.32	0.083
1.10	-25.31	0.084
1.10	-25.31	0.084
1.10	-25.30	0.084
1.10	-25.29	0.084
1.10	-25.28	0.084
1.11	-25.27	0.084
1.11	-25.26	0.084
1.11	-25.26	0.084
1.11	-25.25	0.084
1.11	-25.24	0.084
1.11	-25.23	0.084
1.12	-25.22	0.084
1.12	-25.22	0.084
1.12	-25.21	0.084
1.12	-25.20	0.084
1.12	-25.19	0.084
1.12	-25.18	0.084
1.13	-25.17	0.084
1.13	-25.17	0.084
1.13	-25.16	0.085
1.13	-25.15	0.085
1.13	-25.14	0.085
1.13	-25.13	0.085
1.13	-25.12	0.085
1.14	-25.12	0.085
1.14	-25.11	0.085
1.14	-25.10	0.085
1.14	-25.09	0.085
1.14	-25.08	0.085
1.14	-25.08	0.085
1.15	-25.07	0.085
1.15	-25.06	0.085
1.15	-25.05	0.085
1.15	-25.04	0.085
1.15	-25.03	0.085
1.16	-25.02	0.086
1.16	-25.02	0.086
1.16	-25.01	0.086
1.16	-25.00	0.086
1.16	-24.99	0.086
1.16	-24.98	0.086
1.17	-24.98	0.086
1.17	-24.97	0.086
1.17	-24.96	0.086
1.17	-24.95	0.086
1.17	-24.94	0.086
1.17	-24.93	0.086
1.18	-24.93	0.086
1.18	-24.92	0.086
1.18	-24.91	0.086
1.18	-24.90	0.086
1.18	-24.89	0.086
1.18	-24.89	0.086
1.18	-24.88	0.086
1.19	-24.87	0.086
1.19	-24.86	0.087
1.19	-24.85	0.087
1.19	-24.84	0.087
1.19	-24.84	0.087
1.19	-24.83	0.087
1.20	-24.82	0.087
1.20	-24.81	0.087
1.20	-24.80	0.087
1.20	-24.79	0.087
1.20	-24.79	0.087
1.21	-24.78	0.087
1.21	-24.77	0.087
1.21	-24.76	0.087
1.21	-24.75	0.087
1.21	-24.74	0.087
1.21	-24.74	0.087
1.22	-24.73	0.087
1.22	-24.72	0.087
1.22	-24.71	0.087
1.22	-24.70	0.088
1.22	-24.69	0.088
1.22	-24.69	0.088
1.23	-24.68	0.088
1.23	-24.67	0.088
1.23	-24.66	0.088
1.23	-24.65	0.088
1.23	-24.65	0.088
1.23	-24.64	0.088
1.23	-24.63	0.088
1.24	-24.62	0.088
1.24	-24.61	0.088
1.24	-24.60	0.088
1.24	-24.60	0.088
1.24	-24.59	0.088
1.24	-24.58	0.088
1.25	-24.57	0.088
1.25	-24.56	0.088
1.25	-24.55	0.088
1.25	-24.55	0.088
1.25	-24.54	0.088
1.26	-24.53	0.089
1.26	-24.52	0.089
1.26	-24.51	0.089
1.26	-24.50	0.089
1.26	-24.50	0.089
1.26	-24.49	0.089
1.27	-24.48	0.089
1.27	-24.47	0.089
1.27	-24.46	0.089
1.27	-24.46	0.089
1.27	-24.45	0.089
1.27	-24.44	0.089
1.28	-24.43	0.089
1.28	-24.42	0.089
1.28	-24.41	0.089
1.28	-24.40	0.089
1.28	-24.40	0.089
1.28	-24.39	0.089
1.28	-24.38	0.089
1.29	-24.37	0.089
1.29	-24.36	0.089
1.29	-24.35	0.089
1.29	-24.35	0.089
1.29	-24.34	0.090
1.29	-24.33	0.090
1.30	-24.32	0.090
1.30	-24.31	0.090
1.30	-24.31	0.090
1.30	-24.30	0.090
1.30	-24.29	0.090
1.31	-24.28	0.090
1.31	-24.27	0.090
1.31	-24.27	0.090
1.31	-24.26	0.090
1.31	-24.25	0.090
1.31	-24.24	0.090
1.32	-24.23	0.090
1.32	-24.22	0.090
1.32	-24.21	0.090
1.32	-24.21	0.090
1.32	-24.20	0.090
1.32	-24.19	0.090
1.33	-24.18	0.090
1.33	-24.17	0.090
1.33	-24.16	0.090
1.33	-24.15	0.090
1.33	-24.15	0.090
1.33	-24.14	0.090
1.33	-24.13	0.090
1.34	-24.12	0.090
1.34	-24.11	0.091
1.34	-24.11	0.091
1.34	-24.10	0.091
1.34	-24.09	0.091
1.34	-24.08	0.091
1.35	-24.07	0.091
1.35	-24.06	0.091
1.35	-24.06	0.091
1.35	-24.05	0.091
1.35	-24.04	0.091
1.36	-24.03	0.091
1.36	-24.02	0.091
1.36	-24.02	0.091
1.36	-24.01	0.091
1.36	-24.00	0.091
1.36	-23.99	0.091
1.37	-23.98	0.091
1.37	-23.97	0.091
1.37	-23.96	0.091
1.37	-23.96	0.091
1.37	-23.95	0.091
1.37	-23.94	0.091
1.38	-23.93	0.091
1.38	-23.92	0.091
1.38	-23.91	0.092
1.38	-23.91	0.092
1.38	-23.90	0.092
1.38	-23.89	0.092
1.38	-23.88	0.092
1.39	-23.87	0.092
1.39	-23.87	0.092
1.39	-23.86	0.092
1.39	-23.85	0.092
1.39	-23.84	0.092
1.39	-23.83	0.092
1.40	-23.82	0.092
1.40	-23.82	0.092
1.40	-23.81	0.092
1.40	-23.80	0.092
1.40	-23.79	0.092
1.41	-23.78	0.092
1.41	-23.77	0.092
1.41	-23.77	0.092
1.41	-23.76	0.092
1.41	-23.75	0.093
1.41	-23.74	0.093
1.42	-23.73	0.093
1.42	-23.72	0.093
1.42	-23.72	0.093
1.42	-23.71	0.093
1.42	-23.70	0.093
1.42	-23.69	0.093
1.43	-23.68	0.093
1.43	-23.67	0.093
1.43	-23.67	0.093
1.43	-23.66	0.093
1.43	-23.65	0.093
1.43	-23.64	0.093
1.43	-23.63	0.093
1.44	-23.63	0.093
1.44	-23.62	0.093
1.44	-23.61	0.093
1.44	-23.60	0.093
1.44	-23.59	0.093
1.44	-23.58	0.093
1.45	-23.57	0.093
1.45	-23.57	0.093
1.45	-23.56	0.093
1.45	-23.55	0.093
1.45	-23.54	0.093
1.46	-23.53	0.094
1.46	-23.53	0.094
1.46	-23.52	0.094
1.46	-23.51	0.094
1.46	-23.50	0.094
1.46	-23.49	0.094
1.47	-23.48	0.094
1.47	-23.48	0.094
1.47	-23.47	0.094
1.47	-23.46	0.094
1.47	-23.45	0.094
1.47	-23.44	0.094
1.48	-23.43	0.094
1.48	-23.43	0.094
1.48	-23.42	0.094
1.48	-23.41	0.094
1.48	-23.40	0.094
1.48	-23.39	0.094
1.48	-23.38	0.094
1.49	-23.38	0.094
1.49	-23.37	0.094
1.49	-23.36	0.094
1.49	-23.35	0.094
1.49	-23.34	0.094
1.49	-23.33	0.095
1.50	-23.33	0.095
1.50	-23.32	0.095
1.50	-23.31	0.095
1.50	-23.30	0.095
1.50	-23.29	0.095
1.51	-23.29	0.095
1.51	-23.28	0.095
1.51	-23.27	0.095
1.51	-23.26	0.095
1.51	-23.25	0.095
1.51	-23.24	0.095
1.52	-23.24	0.095
1.52	-23.23	0.095
1.52	-23.22	0.095
1.52	-23.21	0.095
1.52	-23.20	0.095
1.52	-23.19	0.095
1.53	-23.19	0.095
1.53	-23.18	0.095
1.53	-23.17	0.095
1.53	-23.16	0.095
1.53	-23.15	0.095
1.53	-23.14	0.095
1.53	-23.14	0.095
1.54	-23.13	0.095
1.54	-23.12	0.095
1.54	-23.11	0.095
1.54	-23.10	0.095
1.54	-23.09	0.095
1.54	-23.09	0.096
1.55	-23.08	0.096
1.55	-23.07	0.096
1.55	-23.06	0.096
1.55	-23.05	0.096
1.55	-23.04	0.096
1.56	-23.04	0.096
1.56	-23.03	0.096
1.56	-23.02	0.096
1.56	-23.01	0.096
1.56	-23.00	0.096
1.56	-22.99	0.096
1.57	-22.99	0.096
1.57	-22.98	0.096
1.57	-22.97	0.096
1.57	-22.96	0.096
1.57	-22.95	0.096
1.57	-22.94	0.096
1.58	-22.94	0.096
1.58	-22.93	0.096
1.58	-22.92	0.096
1.58	-22.91	0.096
1.58	-22.90	0.096
1.58	-22.89	0.096
1.58	-22.89	0.096
1.59	-22.88	0.096
1.59	-22.87	0.096
1.59	-22.86	0.096
1.59	-22.85	0.096
1.59	-22.84	0.096
1.59	-22.84	0.096
1.60	-22.83	0.096
1.60	-22.82	0.096
1.60	-22.81	0.096
1.60	-22.80	0.096
1.60	-22.80	0.097
1.61	-22.79	0.097
1.61	-22.78	0.097
1.61	-22.77	0.097
1.61	-22.76	0.097
1.61	-22.75	0.097
1.61	-22.75	0.097
1.62	-22.74	0.097
1.62	-22.73	0.097
1.62	-22.72	0.097
1.62	-22.71	0.097
1.62	-22.70	0.097
1.62	-22.70	0.097
1.63	-22.69	0.097
1.63	-22.68	0.097
1.63	-22.67	0.097
1.63	-22.66	0.097
1.63	-22.65	0.097
1.63	-22.65	0.097
1.63	-22.64	0.097
1.64	-22.63	0.097
1.64	-22.62	0.097
1.64	-22.61	0.097
1.64	-22.61	0.097
1.64	-22.60	0.097
1.64	-22.59	0.097
1.65	-22.58	0.097
1.65	-22.57	0.097
1.65	-22.56	0.097
1.65	-22.55	0.097
1.65	-22.55	0.097
1.66	-22.54	0.097
1.66	-22.53	0.097
1.66	-22.52	0.097
1.66	-22.51	0.097
1.66	-22.51	0.097
1.66	-22.50	0.097
1.67	-22.49	0.097
1.67	-22.48	0.097
1.67	-22.47	0.097
1.67	-22.46	0.097
1.67	-22.46	0.098
1.67	-22.45	0.098
1.68	-22.44	0.098
1.68	-22.43	0.098
1.68	-22.42	0.098
1.68	-22.41	0.098
1.68	-22.41	0.098
1.68	-22.40	0.098
1.68	-22.39	0.098
1.69	-22.38	0.098
1.69	-22.37	0.098
1.69	-22.36	0.098
1.69	-22.36	0.098
1.69	-22.35	0.098
1.69	-22.34	0.098
1.70	-22.33	0.098
1.70	-22.32	0.098
1.70	-22.31	0.098
1.70	-22.31	0.098
1.70	-22.30	0.098
1.71	-22.29	0.098
1.71	-22.28	0.098
1.71	-22.27	0.098
1.71	-22.26	0.098
1.71	-22.26	0.098
1.71	-22.25	0.098
1.72	-22.24	0.098
1.72	-22.23	0.098
1.72	-22.22	0.098
1.72	-22.21	0.098
1.72	-22.21	0.098
1.72	-22.20	0.098
1.73	-22.19	0.098
1.73	-22.18	0.098
1.73	-22.17	0.098
1.73	-22.16	0.098
1.73	-22.16	0.098
1.73	-22.15	0.098
1.73	-22.14	0.098
1.74	-22.13	0.098
1.74	-22.12	0.098
1.74	-22.11	0.098
1.74	-22.11	0.098
1.74	-22.10	0.098
1.74	-22.09	0.098
1.75	-22.08	0.099
1.75	-22.07	0.099
1.75	-22.06	0.099
1.75	-22.06	0.099
1.75	-22.05	0.099
1.76	-22.04	0.099
1.76	-22.03	0.099
1.76	-22.02	0.099
1.76	-22.01	0.099
1.76	-22.01	0.099
1.76	-22.00	0.099
1.77	-21.99	0.099
1.77	-21.98	0.099
1.77	-21.97	0.099
1.77	-21.96	0.099
1.77	-21.96	0.099
1.77	-21.95	0.099
1.78	-21.94	0.099
1.78	-21.93	0.099
1.78	-21.92	0.099
1.78	-21.91	0.099
1.78	-21.91	0.099
1.78	-21.90	0.099
1.78	-21.89	0.099
1.79	-21.88	0.099
1.79	-21.87	0.099
1.79	-21.86	0.099
1.79	-21.86	0.099
1.79	-21.85	0.099
1.79	-21.84	0.099
1.80	-21.83	0.099
1.80	-21.82	0.099
1.80	-21.81	0.099
1.80	-21.81	0.099
1.80	-21.80	0.099
1.81	-21.79	0.099
1.81	-21.78	0.099
1.81	-21.77	0.099
1.81	-21.76	0.099
1.81	-21.76	0.099
1.81	-21.75	0.099
1.82	-21.74	0.099
1.82	-21.73	0.099
1.82	-21.72	0.099
1.82	-21.71	0.099
1.82	-21.71	0.100
1.82	-21.70	0.100
1.83	-21.69	0.100
1.83	-21.68	0.100
1.83	-21.67	0.100
1.83	-21.66	0.100
1.83	-21.66	0.100
1.83	-21.65	0.100
1.83	-21.64	0.100
1.84	-21.63	0.100
1.84	-21.62	0.100
1.84	-21.61	0.100
1.84	-21.61	0.100
1.84	-21.60	0.100
1.84	-21.59	0.100
1.85	-21.58	0.100
1.85	-21.57	0.100
1.85	-21.56	0.100
1.85	-21.55	0.100
1.85	-21.55	0.100
1.86	-21.54	0.100
1.86	-21.53	0.100
1.86	-21.52	0.100
1.86	-21.51	0.100
1.86	-21.51	0.100
1.86	-21.50	0.100
1.87	-21.49	0.100
1.87	-21.48	0.100
1.87	-21.47	0.100
1.87	-21.46	0.100
1.87	-21.46	0.100
1.87	-21.45	0.100
1.88	-21.44	0.100
1.88	-21.43	0.100
1.88	-21.42	0.100
1.88	-21.41	0.100
1.88	-21.40	0.100
1.88	-21.40	0.100
1.88	-21.39	0.100
1.89	-21.38	0.100
1.89	-21.37	0.100
1.89	-21.36	0.100
1.89	-21.36	0.100
1.89	-21.35	0.100
1.89	-21.34	0.100
1.90	-21.33	0.100
1.90	-21.32	0.100
1.90	-21.31	0.100
1.90	-21.31	0.100
1.90	-21.30	0.100
1.91	-21.29	0.100
1.91	-21.28	0.100
1.91	-21.27	0.100
1.91	-21.26	0.100
1.91	-21.26	0.100
1.91	-21.25	0.100
1.92	-21.24	0.100
1.92	-21.23	0.100
1.92	-21.22	0.100
1.92	-21.21	0.100
1.92	-21.21	0.101
1.92	-21.20	0.101
1.93	-21.19	0.101
1.93	-21.18	0.101
1.93	-21.17	0.101
1.93	-21.16	0.101
1.93	-21.16	0.101
1.93	-21.15	0.101
1.93	-21.14	0.101
1.94	-21.13	0.101
1.94	-21.12	0.101
1.94	-21.11	0.101
1.94	-21.10	0.101
1.94	-21.10	0.101
1.94	-21.09	0.101
1.95	-21.08	0.101
1.95	-21.07	0.101
1.95	-21.06	0.101
1.95	-21.06	0.101
1.95	-21.05	0.101
1.96	-21.04	0.101
1.96	-21.03	0.101
1.96	-21.02	0.101
1.96	-21.01	0.101
1.96	-21.01	0.101
1.96	-21.00	0.101
1.97	-20.99	0.101
1.97	-20.98	0.101
1.97	-20.97	0.101
1.97	-20.96	0.101
1.97	-20.96	0.101
1.97	-20.95	0.101
1.98	-20.94	0.101
1.98	-20.93	0.101
1.98	-20.92	0.101
1.98	-20.91	0.101
1.98	-20.91	0.101
1.98	-20.90	0.101
1.98	-20.89	0.101
1.99	-20.88	0.101
1.99	-20.87	0.101
1.99	-20.86	0.101
1.99	-20.86	0.101
1.99	-20.85	0.101
1.99	-20.84	0.101
2.00	-20.83	0.101
2.00	-20.82	0.101
2.00	-20.82	0.101
2.00	-20.81	0.101
2.00	-20.80	0.101
2.01	-20.79	0.101
2.01	-20.78	0.101
2.01	-20.77	0.101
2.01	-20.76	0.102
2.01	-20.76	0.102
2.01	-20.75	0.102
2.02	-20.74	0.102
2.02	-20.73	0.102
2.02	-20.72	0.102
2.02	-20.71	0.102
2.02	-20.70	0.102
2.02	-20.70	0.102
2.03	-20.69	0.102
2.03	-20.68	0.102
2.03	-20.67	0.102
2.03	-20.66	0.102
2.03	-20.66	0.102
2.03	-20.65	0.102
2.03	-20.64	0.102
2.04	-20.63	0.102
2.04	-20.62	0.102
2.04	-20.62	0.102
2.04	-20.61	0.102
2.04	-20.60	0.102
2.04	-20.59	0.102
2.05	-20.58	0.102
2.05	-20.57	0.102
2.05	-20.57	0.102
2.05	-20.56	0.102
2.05	-20.55	0.102
2.06	-20.54	0.102
2.06	-20.53	0.102
2.06	-20.52	0.102
2.06	-20.51	0.102
2.06	-20.51	0.102
2.06	-20.50	0.102
2.07	-20.49	0.102
2.07	-20.48	0.102
2.07	-20.47	0.102
2.07	-20.47	0.102
2.07	-20.46	0.102
2.07	-20.45	0.102
2.08	-20.44	0.102
2.08	-20.43	0.102
2.08	-20.42	0.102
2.08	-20.42	0.102
2.08	-20.41	0.102
2.08	-20.40	0.102
2.08	-20.39	0.102
2.09	-20.38	0.102
2.09	-20.37	0.102
2.09	-20.36	0.102
2.09	-20.36	0.102
2.09	-20.35	0.102
2.09	-20.34	0.102
2.10	-20.33	0.102
2.10	-20.32	0.102
2.10	-20.31	0.102
2.10	-20.31	0.102
2.10	-20.30	0.102
2.11	-20.29	0.102
2.11	-20.28	0.102
2.11	-20.27	0.102
2.11	-20.26	0.102
2.11	-20.26	0.102
2.11	-20.25	0.102
2.12	-20.24	0.102
2.12	-20.23	0.102
2.12	-20.22	0.102
2.12	-20.21	0.102
2.12	-20.21	0.102
2.12	-20.20	0.102
2.13	-20.19	0.102
2.13	-20.18	0.102
2.13	-20.17	0.102
2.13	-20.17	0.102
2.13	-20.16	0.102
2.13	-20.15	0.102
2.14	-20.14	0.102
2.14	-20.13	0.102
2.14	-20.12	0.103
2.14	-20.11	0.103
2.14	-20.11	0.103
2.14	-20.10	0.103
2.14	-20.09	0.103
2.15	-20.08	0.103
2.15	-20.07	0.103
2.15	-20.06	0.103
2.15	-20.06	0.103
2.15	-20.05	0.103
2.16	-20.04	0.103
2.16	-20.03	0.103
2.16	-20.02	0.103
2.16	-20.01	0.103
2.16	-20.01	0.103
2.16	-20.00	0.103
2.16	-19.99	0.103
2.17	-19.98	0.103
2.17	-19.97	0.103
2.17	-19.96	0.103
2.17	-19.96	0.103
2.17	-19.95	0.103
2.18	-19.94	0.103
2.18	-19.93	0.103
2.18	-19.92	0.103
2.18	-19.91	0.103
2.18	-19.91	0.103
2.18	-19.90	0.103
2.19	-19.89	0.103
2.19	-19.88	0.103
2.19	-19.87	0.103
2.19	-19.86	0.103
2.19	-19.86	0.103
2.19	-19.85	0.103
2.19	-19.84	0.103
2.20	-19.83	0.103
2.20	-19.82	0.103
2.20	-19.81	0.103
2.20	-19.81	0.103
2.20	-19.80	0.103
2.21	-19.79	0.103
2.21	-19.78	0.103
2.21	-19.77	0.103
2.21	-19.76	0.103
2.21	-19.76	0.103
2.21	-19.75	0.103
2.21	-19.74	0.103
2.22	-19.73	0.103
2.22	-19.72	0.103
2.22	-19.71	0.103
2.22	-19.71	0.103
2.22	-19.70	0.103
2.23	-19.69	0.103
2.23	-19.68	0.103
2.23	-19.67	0.103
2.23	-19.66	0.103
2.23	-19.66	0.103
2.23	-19.65	0.103
2.24	-19.64	0.103
2.24	-19.63	0.103
2.24	-19.62	0.103
2.24	-19.62	0.103
2.24	-19.61	0.103
2.24	-19.60	0.103
2.24	-19.59	0.103
2.25	-19.58	0.103
2.25	-19.57	0.103
2.25	-19.57	0.103
2.25	-19.56	0.103
2.25	-19.55	0.103
2.26	-19.54	0.103
2.26	-19.53	0.103
2.26	-19.52	0.103
2.26	-19.52	0.103
2.26	-19.51	0.103
2.26	-19.50	0.103
2.26	-19.49	0.103
2.27	-19.48	0.103
2.27	-19.47	0.103
2.27	-19.47	0.103
2.27	-19.46	0.103
2.27	-19.45	0.103
2.28	-19.44	0.103
2.28	-19.43	0.103
2.28	-19.42	0.103
2.28	-19.42	0.103
2.28	-19.41	0.103
2.28	-19.40	0.103
2.29	-19.39	0.104
2.29	-19.38	0.104
2.29	-19.37	0.104
2.29	-19.36	0.104
2.29	-19.36	0.104
2.29	-19.35	0.104
2.29	-19.34	0.104
2.30	-19.33	0.104
2.30	-19.32	0.104
2.30	-19.31	0.104
2.30	-19.31	0.104
2.30	-19.30	0.104
2.31	-19.29	0.104
2.31	-19.28	0.104
2.31	-19.27	0.104
2.31	-19.26	0.104
2.31	-19.26	0.104
2.31	-19.25	0.104
2.31	-19.24	0.104
2.32	-19.23	0.104
2.32	-19.22	0.104
2.32	-19.21	0.104
2.32	-19.21	0.104
2.32	-19.20	0.104
2.33	-19.19	0.104
2.33	-19.18	0.104
2.33	-19.17	0.104
2.33	-19.17	0.104
2.33	-19.16	0.104
2.33	-19.15	0.104
2.34	-19.14	0.104
2.34	-19.13	0.104
2.34	-19.12	0.104
2.34	-19.12	0.104
2.34	-19.11	0.104
2.34	-19.10	0.104
2.34	-19.09	0.104
2.35	-19.08	0.104
2.35	-19.07	0.104
2.35	-19.06	0.103
2.35	-19.06	0.103
2.35	-19.05	0.103
2.36	-19.04	0.103
2.36	-19.03	0.103
2.36	-19.02	0.103
2.36	-19.02	0.103
2.36	-19.01	0.104
2.36	-19.00	0.104
2.36	-18.99	0.104
2.37	-18.98	0.104
2.37	-18.97	0.104
2.37	-18.96	0.104
2.37	-18.96	0.104
2.37	-18.95	0.104
2.38	-18.94	0.104
2.38	-18.93	0.104
2.38	-18.92	0.104
2.38	-18.92	0.104
2.38	-18.91	0.104
2.38	-18.90	0.104
2.39	-18.89	0.104
2.39	-18.88	0.104
2.39	-18.87	0.104
2.39	-18.86	0.104
2.39	-18.86	0.104
2.39	-18.85	0.104
2.39	-18.84	0.104
2.40	-18.83	0.104
2.40	-18.82	0.104
2.40	-18.82	0.104
2.40	-18.81	0.104
2.40	-18.80	0.104
2.41	-18.79	0.104
2.41	-18.78	0.104
2.41	-18.77	0.104
2.41	-18.77	0.104
2.41	-18.76	0.104
2.41	-18.75	0.104
2.41	-18.74	0.104
2.42	-18.73	0.104
2.42	-18.72	0.104
2.42	-18.72	0.104
2.42	-18.71	0.104
2.42	-18.70	0.104
2.43	-18.69	0.104
2.43	-18.68	0.104
2.43	-18.67	0.104
2.43	-18.67	0.104
2.43	-18.66	0.104
2.43	-18.65	0.104
2.44	-18.64	0.104
2.44	-18.63	0.104
2.44	-18.62	0.104
2.44	-18.62	0.104
2.44	-18.61	0.104
2.44	-18.60	0.104
2.44	-18.59	0.104
2.45	-18.58	0.104
2.45	-18.57	0.104
2.45	-18.56	0.104
2.45	-18.56	0.104
2.45	-18.55	0.104
2.46	-18.54	0.104
2.46	-18.53	0.104
2.46	-18.52	0.104
2.46	-18.52	0.104
2.46	-18.51	0.104
2.46	-18.50	0.104
2.46	-18.49	0.104
2.47	-18.48	0.104
2.47	-18.47	0.104
2.47	-18.46	0.104
2.47	-18.46	0.104
2.47	-18.45	0.104
2.48	-18.44	0.104
2.48	-18.43	0.104
2.48	-18.42	0.104
2.48	-18.41	0.104
2.48	-18.41	0.104
2.48	-18.40	0.104
2.49	-18.39	0.104
2.49	-18.38	0.104
2.49	-18.37	0.104
2.49	-18.36	0.104
2.49	-18.36	0.104
2.49	-18.35	0.104
2.49	-18.34	0.104
2.50	-18.33	0.104
2.50	-18.32	0.104
2.50	-18.32	0.104
2.50	-18.31	0.104
2.50	-18.30	0.104
2.51	-18.29	0.104
2.51	-18.28	0.104
2.51	-18.27	0.104
2.51	-18.26	0.104
2.51	-18.26	0.104
2.51	-18.25	0.104
2.51	-18.24	0.104
2.52	-18.23	0.104
2.52	-18.22	0.104
2.52	-18.21	0.104
2.52	-18.21	0.104
2.52	-18.20	0.104
2.53	-18.19	0.104
2.53	-18.18	0.104
2.53	-18.17	0.104
2.53	-18.16	0.104
2.53	-18.16	0.104
2.53	-18.15	0.104
2.54	-18.14	0.104
2.54	-18.13	0.104
2.54	-18.12	0.104
2.54	-18.11	0.104
2.54	-18.11	0.104
2.54	-18.10	0.104
2.54	-18.09	0.104
2.55	-18.08	0.104
2.55	-18.07	0.104
2.55	-18.07	0.104
2.55	-18.06	0.104
2.55	-18.05	0.104
2.56	-18.04	0.104
2.56	-18.03	0.104
2.56	-18.02	0.104
2.56	-18.01	0.104
2.56	-18.01	0.104
2.56	-18.00	0.104
2.56	-17.99	0.104
2.57	-17.98	0.104
2.57	-17.97	0.104
2.57	-17.96	0.104
2.57	-17.96	0.104
2.57	-17.95	0.104
2.58	-17.94	0.104
2.58	-17.93	0.104
2.58	-17.92	0.104
2.58	-17.92	0.104
2.58	-17.91	0.104
2.58	-17.90	0.104
2.59	-17.89	0.104
2.59	-17.88	0.104
2.59	-17.87	0.104
2.59	-17.86	0.104
2.59	-17.86	0.104
2.59	-17.85	0.104
2.59	-17.84	0.105
2.60	-17.83	0.105
2.60	-17.82	0.105
2.60	-17.82	0.105
2.60	-17.81	0.105
2.60	-17.80	0.105
2.61	-17.79	0.105
2.61	-17.78	0.105
2.61	-17.77	0.105
2.61	-17.76	0.105
2.61	-17.76	0.105
2.61	-17.75	0.105
2.61	-17.74	0.105
2.62	-17.73	0.105
2.62	-17.72	0.105
2.62	-17.71	0.105
2.62	-17.71	0.105
2.62	-17.70	0.105
2.63	-17.69	0.105
2.63	-17.68	0.105
2.63	-17.67	0.105
2.63	-17.67	0.105
2.63	-17.66	0.105
2.63	-17.65	0.105
2.64	-17.64	0.105
2.64	-17.63	0.105
2.64	-17.62	0.105
2.64	-17.61	0.105
2.64	-17.61	0.105
2.64	-17.60	0.105
2.64	-17.59	0.105
2.65	-17.58	0.105
2.65	-17.57	0.105
2.65	-17.56	0.105
2.65	-17.55	0.105
2.65	-17.55	0.105
2.66	-17.54	0.105
2.66	-17.53	0.105
2.66	-17.52	0.105
2.66	-17.51	0.105
2.66	-17.51	0.105
2.66	-17.50	0.105
2.66	-17.49	0.105
2.67	-17.48	0.105
2.67	-17.47	0.105
2.67	-17.46	0.105
2.67	-17.46	0.105
2.67	-17.45	0.105
2.68	-17.44	0.105
2.68	-17.43	0.105
2.68	-17.42	0.105
2.68	-17.41	0.105
2.68	-17.41	0.105
2.68	-17.40	0.105
2.69	-17.39	0.105
2.69	-17.38	0.105
2.69	-17.37	0.105
2.69	-17.36	0.105
2.69	-17.36	0.105
2.69	-17.35	0.105
2.69	-17.34	0.105
2.70	-17.33	0.105
2.70	-17.32	0.105
2.70	-17.31	0.105
2.70	-17.31	0.105
2.70	-17.30	0.105
2.71	-17.29	0.105
2.71	-17.28	0.105
2.71	-17.27	0.105
2.71	-17.27	0.105
2.71	-17.26	0.105
2.71	-17.25	0.105
2.71	-17.24	0.105
2.72	-17.23	0.105
2.72	-17.22	0.105
2.72	-17.22	0.105
2.72	-17.21	0.105
2.72	-17.20	0.105
2.73	-17.19	0.105
2.73	-17.18	0.105
2.73	-17.17	0.105
2.73	-17.16	0.105
2.73	-17.16	0.105
2.73	-17.15	0.105
2.74	-17.14	0.105
2.74	-17.13	0.105
2.74	-17.12	0.105
2.74	-17.11	0.105
2.74	-17.11	0.105
2.74	-17.10	0.105
2.74	-17.09	0.105
2.75	-17.08	0.105
2.75	-17.07	0.105
2.75	-17.06	0.105
2.75	-17.06	0.105
2.75	-17.05	0.105
2.76	-17.04	0.105
2.76	-17.03	0.105
2.76	-17.02	0.105
2.76	-17.01	0.105
2.76	-17.01	0.105
2.76	-17.00	0.105
2.76	-16.99	0.105
2.77	-16.98	0.105
2.77	-16.97	0.105
2.77	-16.96	0.105
2.77	-16.96	0.105
2.77	-16.95	0.105
2.78	-16.94	0.105
2.78	-16.93	0.105
2.78	-16.92	0.105
2.78	-16.91	0.105
2.78	-16.91	0.105
2.78	-16.90	0.105
2.79	-16.89	0.105
2.79	-16.88	0.105
2.79	-16.87	0.105
2.79	-16.86	0.105
2.79	-16.86	0.105
2.79	-16.85	0.105
2.79	-16.84	0.105
2.80	-16.83	0.105
2.80	-16.82	0.105
2.80	-16.81	0.105
2.80	-16.81	0.105
2.80	-16.80	0.105
2.81	-16.79	0.105
2.81	-16.78	0.105
2.81	-16.77	0.105
2.81	-16.76	0.105
2.81	-16.76	0.105
2.81	-16.75	0.105
2.81	-16.74	0.105
2.82	-16.73	0.105
2.82	-16.72	0.105
2.82	-16.71	0.105
2.82	-16.71	0.105
2.82	-16.70	0.105
2.83	-16.69	0.105
2.83	-16.68	0.105
2.83	-16.67	0.105
2.83	-16.66	0.105
2.83	-16.66	0.105
2.83	-16.65	0.105
2.84	-16.64	0.105
2.84	-16.63	0.105
2.84	-16.62	0.105
2.84	-16.61	0.105
2.84	-16.61	0.105
2.84	-16.60	0.105
2.84	-16.59	0.105
2.85	-16.58	0.106
2.85	-16.57	0.106
2.85	-16.57	0.106
2.85	-16.56	0.106
2.85	-16.55	0.106
2.86	-16.54	0.106
2.86	-16.53	0.106
2.86	-16.52	0.106
2.86	-16.51	0.106
2.86	-16.51	0.106
2.86	-16.50	0.106
2.86	-16.49	0.106
2.87	-16.48	0.106
2.87	-16.47	0.106
2.87	-16.46	0.106
2.87	-16.45	0.106
2.87	-16.45	0.106
2.88	-16.44	0.106
2.88	-16.43	0.106
2.88	-16.42	0.106
2.88	-16.41	0.106
2.88	-16.41	0.106
2.88	-16.40	0.106
2.89	-16.39	0.106
2.89	-16.38	0.106
2.89	-16.37	0.106
2.89	-16.36	0.106
2.89	-16.36	0.106
2.89	-16.35	0.106
2.89	-16.34	0.106
2.90	-16.33	0.106
2.90	-16.32	0.106
2.90	-16.31	0.106
2.90	-16.30	0.106
2.90	-16.30	0.106
2.91	-16.29	0.106
2.91	-16.28	0.106
2.91	-16.27	0.106
2.91	-16.26	0.106
2.91	-16.26	0.106
2.91	-16.25	0.106
2.91	-16.24	0.106
2.92	-16.23	0.106
2.92	-16.22	0.106
2.92	-16.21	0.106
2.92	-16.21	0.106
2.92	-16.20	0.106
2.93	-16.19	0.106
2.93	-16.18	0.106
2.93	-16.17	0.106
2.93	-16.16	0.106
2.93	-16.16	0.106
2.93	-16.15	0.106
2.94	-16.14	0.106
2.94	-16.13	0.106
2.94	-16.12	0.106
2.94	-16.11	0.106
2.94	-16.11	0.106
2.94	-16.10	0.106
2.94	-16.09	0.106
2.95	-16.08	0.106
2.95	-16.07	0.106
2.95	-16.07	0.106
2.95	-16.06	0.106
2.95	-16.05	0.106
2.96	-16.04	0.106
2.96	-16.03	0.106
2.96	-16.02	0.106
2.96	-16.01	0.106
2.96	-16.01	0.106
2.96	-16.00	0.106
2.96	-15.99	0.106
2.97	-15.98	0.106
2.97	-15.97	0.106
2.97	-15.96	0.106
2.97	-15.96	0.106
2.97	-15.95	0.106
2.98	-15.94	0.106
2.98	-15.93	0.106
2.98	-15.92	0.106
2.98	-15.91	0.106
2.98	-15.91	0.106
2.98	-15.90	0.106
2.99	-15.89	0.106
2.99	-15.88	0.106
2.99	-15.87	0.106
2.99	-15.86	0.106
2.99	-15.86	0.106
2.99	-15.85	0.106
2.99	-15.84	0.106
3.00	-15.83	0.106
3.00	-15.82	0.106
3.00	-15.81	0.106
3.00	-15.81	0.106
3.00	-15.80	0.106
3.01	-15.79	0.106
3.01	-15.78	0.106
3.01	-15.77	0.106
3.01	-15.77	0.106
3.01	-15.76	0.106
3.01	-15.75	0.106
3.01	-15.74	0.106
3.02	-15.73	0.106
3.02	-15.72	0.106
3.02	-15.71	0.106
3.02	-15.71	0.106
3.02	-15.70	0.106
3.03	-15.69	0.106
3.03	-15.68	0.106
3.03	-15.67	0.106
3.03	-15.66	0.106
3.03	-15.66	0.106
3.03	-15.65	0.106
3.04	-15.64	0.106
3.04	-15.63	0.106
3.04	-15.62	0.106
3.04	-15.61	0.106
3.04	-15.61	0.106
3.04	-15.60	0.106
3.04	-15.59	0.106
3.05	-15.58	0.106
3.05	-15.57	0.106
3.05	-15.57	0.106
3.05	-15.56	0.106
3.05	-15.55	0.106
3.06	-15.54	0.106
3.06	-15.53	0.106
3.06	-15.52	0.106
3.06	-15.51	0.106
3.06	-15.51	0.106
3.06	-15.50	0.106
3.06	-15.49	0.106
3.07	-15.48	0.106
3.07	-15.47	0.106
3.07	-15.46	0.106
3.07	-15.46	0.106
3.07	-15.45	0.106
3.08	-15.44	0.106
3.08	-15.43	0.106
3.08	-15.42	0.106
3.08	-15.42	0.106
3.08	-15.41	0.106
3.08	-15.40	0.106
3.09	-15.39	0.106
3.09	-15.38	0.106
3.09	-15.37	0.106
3.09	-15.36	0.106
3.09	-15.36	0.106
3.09	-15.35	0.106
3.09	-15.34	0.106
3.10	-15.33	0.106
3.10	-15.32	0.106
3.10	-15.31	0.106
3.10	-15.31	0.106
3.10	-15.30	0.106
3.11	-15.29	0.106
3.11	-15.28	0.106
3.11	-15.27	0.106
3.11	-15.26	0.106
3.11	-15.26	0.106
3.11	-15.25	0.106
3.11	-15.24	0.106
3.12	-15.23	0.106
3.12	-15.22	0.106
3.12	-15.21	0.106
3.12	-15.21	0.106
3.12	-15.20	0.106
3.13	-15.19	0.106
3.13	-15.18	0.106
3.13	-15.17	0.106
3.13	-15.16	0.106
3.13	-15.16	0.106
3.13	-15.15	0.106
3.14	-15.14	0.106
3.14	-15.13	0.106
3.14	-15.12	0.106
3.14	-15.11	0.106
3.14	-15.11	0.106
3.14	-15.10	0.106
3.14	-15.09	0.106
3.15	-15.08	0.106
3.15	-15.07	0.106
3.15	-15.06	0.106
3.15	-15.06	0.106
3.15	-15.05	0.106
3.16	-15.04	0.106
3.16	-15.03	0.106
3.16	-15.02	0.106
3.16	-15.01	0.106
3.16	-15.01	0.106
3.16	-15.00	0.106
3.16	-14.99	0.106
3.17	-14.98	0.106
3.17	-14.97	0.106
3.17	-14.96	0.106
3.17	-14.96	0.106
3.17	-14.95	0.106
3.18	-14.94	0.106
3.18	-14.93	0.106
3.18	-14.92	0.106
3.18	-14.91	0.106
3.18	-14.91	0.106
3.18	-14.90	0.106
3.19	-14.89	0.106
3.19	-14.88	0.106
3.19	-14.87	0.106
3.19	-14.86	0.106
3.19	-14.86	0.106
3.19	-14.85	0.106
3.19	-14.84	0.106
3.20	-14.83	0.106
3.20	-14.82	0.106
3.20	-14.81	0.106
3.20	-14.81	0.106
3.20	-14.80	0.106
3.21	-14.79	0.106
3.21	-14.78	0.106
3.21	-14.77	0.106
3.21	-14.76	0.106
3.21	-14.75	0.106
3.21	-14.75	0.106
3.21	-14.74	0.106
3.22	-14.73	0.106
3.22	-14.72	0.106
3.22	-14.71	0.106
3.22	-14.70	0.106
3.22	-14.70	0.106
3.23	-14.69	0.106
3.23	-14.68	0.106
3.23	-14.67	0.106
3.23	-14.66	0.106
3.23	-14.65	0.106
3.23	-14.65	0.106
3.24	-14.64	0.106
3.24	-14.63	0.106
3.24	-14.62	0.106
3.24	-14.61	0.106
3.24	-14.61	0.106
3.24	-14.60	0.106
3.24	-14.59	0.106
3.25	-14.58	0.106
3.25	-14.57	0.106
3.25	-14.56	0.106
3.25	-14.55	0.106
3.25	-14.55	0.106
3.26	-14.54	0.106
3.26	-14.53	0.106
3.26	-14.52	0.106
3.26	-14.51	0.106
3.26	-14.51	0.106
3.26	-14.50	0.106
3.26	-14.49	0.106
3.27	-14.48	0.106
3.27	-14.47	0.106
3.27	-14.46	0.106
3.27	-14.46	0.106
3.27	-14.45	0.106
3.28	-14.44	0.106
3.28	-14.43	0.106
3.28	-14.42	0.106
3.28	-14.41	0.106
3.28	-14.40	0.106
3.28	-14.40	0.106
3.29	-14.39	0.106
3.29	-14.38	0.106
3.29	-14.37	0.106
3.29	-14.36	0.106
3.29	-14.35	0.106
3.29	-14.35	0.106
3.29	-14.34	0.106
3.30	-14.33	0.106
3.30	-14.32	0.106
3.30	-14.31	0.106
3.30	-14.31	0.106
3.30	-14.30	0.106
3.31	-14.29	0.106
3.31	-14.28	0.106
3.31	-14.27	0.106
3.31	-14.26	0.106
3.31	-14.25	0.106
3.31	-14.25	0.106
3.31	-14.24	0.106
3.32	-14.23	0.106
3.32	-14.22	0.106
3.32	-14.21	0.106
3.32	-14.20	0.106
3.32	-14.20	0.106
3.33	-14.19	0.106
3.33	-14.18	0.106
3.33	-14.17	0.106
3.33	-14.16	0.106
3.33	-14.16	0.106
3.33	-14.15	0.106
3.34	-14.14	0.106
3.34	-14.13	0.106
3.34	-14.12	0.106
3.34	-14.11	0.106
3.34	-14.11	0.106
3.34	-14.10	0.106
3.34	-14.09	0.106
3.35	-14.08	0.106
3.35	-14.07	0.106
3.35	-14.06	0.106
3.35	-14.05	0.106
3.35	-14.05	0.106
3.36	-14.04	0.106
3.36	-14.03	0.106
3.36	-14.02	0.106
3.36	-14.01	0.106
3.36	-14.00	0.106
3.36	-14.00	0.106
3.36	-13.99	0.106
3.37	-13.98	0.106
3.37	-13.97	0.106
3.37	-13.96	0.106
3.37	-13.95	0.106
3.37	-13.95	0.106
3.38	-13.94	0.106
3.38	-13.93	0.106
3.38	-13.92	0.106
3.38	-13.91	0.106
3.38	-13.91	0.106
3.38	-13.90	0.106
3.39	-13.89	0.106
3.39	-13.88	0.106
3.39	-13.87	0.106
3.39	-13.86	0.106
3.39	-13.85	0.106
3.39	-13.85	0.106
3.39	-13.84	0.106
3.40	-13.83	0.106
3.40	-13.82	0.106
3.40	-13.81	0.106
3.40	-13.81	0.106
3.40	-13.80	0.106
3.41	-13.79	0.106
3.41	-13.78	0.106
3.41	-13.77	0.106
3.41	-13.76	0.106
3.41	-13.76	0.106
3.41	-13.75	0.106
3.41	-13.74	0.106
3.42	-13.73	0.106
3.42	-13.72	0.106
3.42	-13.71	0.106
3.42	-13.70	0.106
3.42	-13.70	0.106
3.43	-13.69	0.106
3.43	-13.68	0.106
3.43	-13.67	0.106
3.43	-13.66	0.106
3.43	-13.65	0.106
3.43	-13.65	0.106
3.44	-13.64	0.106
3.44	-13.63	0.106
3.44	-13.62	0.106
3.44	-13.61	0.106
3.44	-13.60	0.106
3.44	-13.60	0.106
3.44	-13.59	0.106
3.45	-13.58	0.106
3.45	-13.57	0.106
3.45	-13.56	0.106
3.45	-13.55	0.106
3.45	-13.55	0.106
3.46	-13.54	0.106
3.46	-13.53	0.106
3.46	-13.52	0.106
3.46	-13.51	0.106
3.46	-13.50	0.106
3.46	-13.49	0.106
3.46	-13.49	0.106
3.47	-13.48	0.107
3.47	-13.47	0.107
3.47	-13.46	0.107
3.47	-13.45	0.107
3.47	-13.45	0.107
3.48	-13.44	0.107
3.48	-13.43	0.107
3.48	-13.42	0.107
3.48	-13.41	0.107
3.48	-13.40	0.107
3.48	-13.40	0.107
3.49	-13.39	0.107
3.49	-13.38	0.107
3.49	-13.37	0.107
3.49	-13.36	0.107
3.49	-13.35	0.107
3.49	-13.34	0.107
3.49	-13.34	0.107
3.50	-13.33	0.107
3.50	-13.32	0.107
3.50	-13.31	0.107
3.50	-13.30	0.107
3.50	-13.29	0.107
3.51	-13.29	0.107
3.51	-13.28	0.107
3.51	-13.27	0.107
3.51	-13.26	0.107
3.51	-13.25	0.107
3.51	-13.25	0.107
3.51	-13.24	0.107
3.52	-13.23	0.107
3.52	-13.22	0.107
3.52	-13.21	0.107
3.52	-13.21	0.107
3.52	-13.20	0.107
3.53	-13.19	0.107
3.53	-13.18	0.107
3.53	-13.17	0.107
3.53	-13.16	0.107
3.53	-13.15	0.107
3.53	-13.15	0.107
3.54	-13.14	0.107
3.54	-13.13	0.107
3.54	-13.12	0.107
3.54	-13.11	0.107
3.54	-13.10	0.107
3.54	-13.10	0.107
3.54	-13.09	0.107
3.55	-13.08	0.107
3.55	-13.07	0.107
3.55	-13.06	0.107
3.55	-13.05	0.107
3.55	-13.04	0.107
3.56	-13.04	0.107
3.56	-13.03	0.107
3.56	-13.02	0.107
3.56	-13.01	0.107
3.56	-13.00	0.107
3.56	-13.00	0.107
3.56	-12.99	0.107
3.57	-12.98	0.107
3.57	-12.97	0.107
3.57	-12.96	0.107
3.57	-12.95	0.107
3.57	-12.95	0.107
3.58	-12.94	0.107
3.58	-12.93	0.107
3.58	-12.92	0.107
3.58	-12.91	0.107
3.58	-12.90	0.107
3.58	-12.90	0.107
3.59	-12.89	0.107
3.59	-12.88	0.107
3.59	-12.87	0.107
3.59	-12.86	0.107
3.59	-12.85	0.107
3.59	-12.85	0.107
3.59	-12.84	0.107
3.60	-12.83	0.107
3.60	-12.82	0.107
3.60	-12.81	0.107
3.60	-12.81	0.107
3.60	-12.80	0.107
3.61	-12.79	0.107
3.61	-12.78	0.107
3.61	-12.77	0.107
3.61	-12.76	0.107
3.61	-12.75	0.107
3.61	-12.75	0.107
3.61	-12.74	0.107
3.62	-12.73	0.107
3.62	-12.72	0.107
3.62	-12.71	0.107
3.62	-12.70	0.107
3.62	-12.69	0.107
3.63	-12.69	0.107
3.63	-12.68	0.107
3.63	-12.67	0.107
3.63	-12.66	0.107
3.63	-12.66	0.107
3.63	-12.65	0.107
3.64	-12.64	0.107
3.64	-12.63	0.107
3.64	-12.62	0.107
3.64	-12.61	0.107
3.64	-12.60	0.107
3.64	-12.60	0.107
3.64	-12.59	0.107
3.65	-12.58	0.107
3.65	-12.57	0.107
3.65	-12.56	0.107
3.65	-12.55	0.107
3.65	-12.55	0.107
3.66	-12.54	0.107
3.66	-12.53	0.107
3.66	-12.52	0.107
3.66	-12.51	0.107
3.66	-12.50	0.107
3.66	-12.50	0.107
3.66	-12.49	0.107
3.67	-12.48	0.107
3.67	-12.47	0.107
3.67	-12.46	0.107
3.67	-12.46	0.107
3.67	-12.45	0.107
3.68	-12.44	0.107
3.68	-12.43	0.107
3.68	-12.42	0.107
3.68	-12.41	0.107
3.68	-12.40	0.107
3.68	-12.40	0.107
3.69	-12.39	0.107
3.69	-12.38	0.107
3.69	-12.37	0.107
3.69	-12.36	0.107
3.69	-12.35	0.107
3.69	-12.35	0.107
3.69	-12.34	0.107
3.70	-12.33	0.107
3.70	-12.32	0.107
3.70	-12.31	0.107
3.70	-12.30	0.107
3.70	-12.30	0.107
3.71	-12.29	0.107
3.71	-12.28	0.107
3.71	-12.27	0.107
3.71	-12.26	0.107
3.71	-12.25	0.107
3.71	-12.25	0.107
3.71	-12.24	0.107
3.72	-12.23	0.107
3.72	-12.22	0.107
3.72	-12.21	0.107
3.72	-12.20	0.107
3.72	-12.20	0.107
3.73	-12.19	0.107
3.73	-12.18	0.107
3.73	-12.17	0.107
3.73	-12.16	0.107
3.73	-12.15	0.107
3.73	-12.15	0.107
3.74	-12.14	0.107
3.74	-12.13	0.108
3.74	-12.12	0.108
3.74	-12.11	0.108
3.74	-12.11	0.108
3.74	-12.10	0.108
3.74	-12.09	0.108
3.75	-12.08	0.108
3.75	-12.07	0.108
3.75	-12.06	0.108
3.75	-12.05	0.108
3.75	-12.05	0.108
3.76	-12.04	0.108
3.76	-12.03	0.108
3.76	-12.02	0.108
3.76	-12.01	0.108
3.76	-12.00	0.108
3.76	-12.00	0.108
3.76	-11.99	0.108
3.77	-11.98	0.108
3.77	-11.97	0.108
3.77	-11.96	0.108
3.77	-11.95	0.108
3.77	-11.95	0.108
3.78	-11.94	0.108
3.78	-11.93	0.108
3.78	-11.92	0.108
3.78	-11.91	0.108
3.78	-11.90	0.108
3.78	-11.90	0.108
3.79	-11.89	0.108
3.79	-11.88	0.108
3.79	-11.87	0.108
3.79	-11.86	0.108
3.79	-11.85	0.108
3.79	-11.85	0.108
3.79	-11.84	0.108
3.80	-11.83	0.108
3.80	-11.82	0.108
3.80	-11.81	0.108
3.80	-11.80	0.108
3.80	-11.80	0.108
3.81	-11.79	0.108
3.81	-11.78	0.108
3.81	-11.77	0.108
3.81	-11.76	0.108
3.81	-11.75	0.108
3.81	-11.75	0.108
3.81	-11.74	0.108
3.82	-11.73	0.108
3.82	-11.72	0.108
3.82	-11.71	0.108
3.82	-11.70	0.108
3.82	-11.70	0.108
3.83	-11.69	0.108
3.83	-11.68	0.108
3.83	-11.67	0.108
3.83	-11.66	0.108
3.83	-11.65	0.108
3.83	-11.65	0.108
3.84	-11.64	0.108
3.84	-11.63	0.108
3.84	-11.62	0.108
3.84	-11.61	0.108
3.84	-11.60	0.108
3.84	-11.60	0.108
3.84	-11.59	0.108
3.85	-11.58	0.108
3.85	-11.57	0.108
3.85	-11.56	0.108
3.85	-11.55	0.108
3.85	-11.55	0.108
3.86	-11.54	0.108
3.86	-11.53	0.108
3.86	-11.52	0.108
3.86	-11.51	0.108
3.86	-11.50	0.108
3.86	-11.49	0.108
3.86	-11.49	0.108
3.87	-11.48	0.108
3.87	-11.47	0.108
3.87	-11.46	0.108
3.87	-11.45	0.108
3.87	-11.45	0.108
3.88	-11.44	0.108
3.88	-11.43	0.108
3.88	-11.42	0.108
3.88	-11.41	0.108
3.88	-11.40	0.108
3.88	-11.40	0.108
3.89	-11.39	0.108
3.89	-11.38	0.108
3.89	-11.37	0.108
3.89	-11.36	0.108
3.89	-11.35	0.108
3.89	-11.35	0.108
3.89	-11.34	0.108
3.90	-11.33	0.108
3.90	-11.32	0.108
3.90	-11.31	0.108
3.90	-11.31	0.108
3.90	-11.30	0.108
3.91	-11.29	0.108
3.91	-11.28	0.108
3.91	-11.27	0.108
3.91	-11.26	0.108
3.91	-11.25	0.108
3.91	-11.25	0.108
3.91	-11.24	0.108
3.92	-11.23	0.108
3.92	-11.22	0.108
3.92	-11.21	0.108
3.92	-11.20	0.108
3.92	-11.20	0.108
3.93	-11.19	0.108
3.93	-11.18	0.108
3.93	-11.17	0.108
3.93	-11.16	0.108
3.93	-11.15	0.108
3.93	-11.15	0.108
3.94	-11.14	0.108
3.94	-11.13	0.108
3.94	-11.12	0.108
3.94	-11.11	0.108
3.94	-11.10	0.108
3.94	-11.10	0.108
3.94	-11.09	0.108
3.95	-11.08	0.108
3.95	-11.07	0.108
3.95	-11.06	0.108
3.95	-11.05	0.108
3.95	-11.05	0.108
3.96	-11.04	0.108
3.96	-11.03	0.108
3.96	-11.02	0.108
3.96	-11.01	0.108
3.96	-11.00	0.108
3.96	-11.00	0.108
3.96	-10.99	0.108
3.97	-10.98	0.108
3.97	-10.97	0.108
3.97	-10.96	0.108
3.97	-10.95	0.108
3.97	-10.95	0.108
3.98	-10.94	0.108
3.98	-10.93	0.108
3.98	-10.92	0.108
3.98	-10.91	0.108
3.98	-10.90	0.108
3.98	-10.89	0.108
3.99	-10.89	0.108
3.99	-10.88	0.108
3.99	-10.87	0.108
3.99	-10.86	0.108
3.99	-10.85	0.108
3.99	-10.85	0.108
3.99	-10.84	0.108
4.00	-10.83	0.108
4.00	-10.82	0.108
4.00	-10.81	0.108
4.00	-10.80	0.108
4.00	-10.79	0.108
4.01	-10.79	0.108
4.01	-10.78	0.108
4.01	-10.77	0.108
4.01	-10.76	0.108
4.01	-10.75	0.108
4.01	-10.74	0.108
4.01	-10.74	0.108
4.02	-10.73	0.108
4.02	-10.72	0.108
4.02	-10.71	0.108
4.02	-10.70	0.108
4.02	-10.70	0.108
4.03	-10.69	0.108
4.03	-10.68	0.108
4.03	-10.67	0.108
4.03	-10.66	0.108
4.03	-10.65	0.108
4.03	-10.64	0.108
4.04	-10.64	0.108
4.04	-10.63	0.108
4.04	-10.62	0.108
4.04	-10.61	0.108
4.04	-10.60	0.108
4.04	-10.59	0.108
4.04	-10.59	0.108
4.05	-10.58	0.108
4.05	-10.57	0.108
4.05	-10.56	0.108
4.05	-10.55	0.108
4.05	-10.54	0.108
4.06	-10.54	0.108
4.06	-10.53	0.108
4.06	-10.52	0.108
4.06	-10.51	0.108
4.06	-10.50	0.108
4.06	-10.49	0.108
4.06	-10.49	0.108
4.07	-10.48	0.108
4.07	-10.47	0.108
4.07	-10.46	0.108
4.07	-10.45	0.108
4.07	-10.44	0.108
4.08	-10.44	0.108
4.08	-10.43	0.108
4.08	-10.42	0.108
4.08	-10.41	0.108
4.08	-10.40	0.108
4.08	-10.39	0.109
4.09	-10.39	0.109
4.09	-10.38	0.109
4.09	-10.37	0.109
4.09	-10.36	0.109
4.09	-10.35	0.109
4.09	-10.35	0.109
4.09	-10.34	0.109
4.10	-10.33	0.109
4.10	-10.32	0.109
4.10	-10.31	0.109
4.10	-10.30	0.109
4.10	-10.29	0.109
4.11	-10.29	0.109
4.11	-10.28	0.109
4.11	-10.27	0.109
4.11	-10.26	0.109
4.11	-10.25	0.109
4.11	-10.25	0.109
4.11	-10.24	0.109
4.12	-10.23	0.109
4.12	-10.22	0.109
4.12	-10.21	0.109
4.12	-10.20	0.109
4.12	-10.19	0.109
4.13	-10.19	0.109
4.13	-10.18	0.109
4.13	-10.17	0.109
4.13	-10.16	0.109
4.13	-10.15	0.109
4.13	-10.14	0.109
4.14	-10.14	0.109
4.14	-10.13	0.109
4.14	-10.12	0.109
4.14	-10.11	0.109
4.14	-10.10	0.109
4.14	-10.10	0.109
4.14	-10.09	0.109
4.15	-10.08	0.109
4.15	-10.07	0.109
4.15	-10.06	0.109
4.15	-10.05	0.109
4.15	-10.04	0.109
4.16	-10.04	0.109
4.16	-10.03	0.109
4.16	-10.02	0.109
4.16	-10.01	0.109
4.16	-10.00	0.109
4.16	-9.99	0.109
4.16	-9.99	0.109
4.17	-9.98	0.109
4.17	-9.97	0.109
4.17	-9.96	0.109
4.17	-9.95	0.109
4.17	-9.94	0.109
4.18	-9.94	0.109
4.18	-9.93	0.109
4.18	-9.92	0.109
4.18	-9.91	0.109
4.18	-9.90	0.109
4.18	-9.89	0.109
4.19	-9.89	0.109
4.19	-9.88	0.109
4.19	-9.87	0.109
4.19	-9.86	0.109
4.19	-9.85	0.109
4.19	-9.84	0.109
4.19	-9.84	0.109
4.20	-9.83	0.109
4.20	-9.82	0.109
4.20	-9.81	0.109
4.20	-9.80	0.109
4.20	-9.79	0.109
4.21	-9.78	0.109
4.21	-9.78	0.109
4.21	-9.77	0.109
4.21	-9.76	0.109
4.21	-9.75	0.109
4.21	-9.74	0.109
4.21	-9.74	0.109
4.22	-9.73	0.109
4.22	-9.72	0.109
4.22	-9.71	0.109
4.22	-9.70	0.109
4.22	-9.69	0.109
4.23	-9.68	0.109
4.23	-9.68	0.109
4.23	-9.67	0.109
4.23	-9.66	0.109
4.23	-9.65	0.109
4.23	-9.64	0.109
4.24	-9.64	0.109
4.24	-9.63	0.109
4.24	-9.62	0.109
4.24	-9.61	0.109
4.24	-9.60	0.109
4.24	-9.59	0.109
4.24	-9.59	0.109
4.25	-9.58	0.109
4.25	-9.57	0.109
4.25	-9.56	0.109
4.25	-9.55	0.109
4.25	-9.54	0.109
4.26	-9.54	0.109
4.26	-9.53	0.109
4.26	-9.52	0.109
4.26	-9.51	0.109
4.26	-9.50	0.109
4.26	-9.49	0.109
4.26	-9.49	0.109
4.27	-9.48	0.109
4.27	-9.47	0.109
4.27	-9.46	0.109
4.27	-9.45	0.109
4.27	-9.44	0.109
4.28	-9.44	0.109
4.28	-9.43	0.109
4.28	-9.42	0.109
4.28	-9.41	0.109
4.28	-9.40	0.109
4.28	-9.39	0.109
4.29	-9.39	0.109
4.29	-9.38	0.109
4.29	-9.37	0.109
4.29	-9.36	0.109
4.29	-9.35	0.109
4.29	-9.34	0.109
4.30	-9.34	0.109
4.30	-9.33	0.109
4.30	-9.32	0.109
4.30	-9.31	0.109
4.30	-9.30	0.109
4.30	-9.29	0.109
4.30	-9.28	0.109
4.31	-9.28	0.109
4.31	-9.27	0.109
4.31	-9.26	0.109
4.31	-9.25	0.109
4.31	-9.24	0.109
4.31	-9.24	0.109
4.32	-9.23	0.109
4.32	-9.22	0.109
4.32	-9.21	0.109
4.32	-9.20	0.109
4.32	-9.19	0.109
4.33	-9.18	0.109
4.33	-9.18	0.109
4.33	-9.17	0.109
4.33	-9.16	0.109
4.33	-9.15	0.109
4.33	-9.14	0.109
4.34	-9.13	0.109
4.34	-9.13	0.110
4.34	-9.12	0.110
4.34	-9.11	0.110
4.34	-9.10	0.110
4.34	-9.09	0.110
4.35	-9.09	0.110
4.35	-9.08	0.110
4.35	-9.07	0.110
4.35	-9.06	0.110
4.35	-9.05	0.110
4.35	-9.04	0.110
4.35	-9.03	0.110
4.36	-9.03	0.110
4.36	-9.02	0.110
4.36	-9.01	0.110
4.36	-9.00	0.110
4.36	-8.99	0.110
4.36	-8.98	0.110
4.37	-8.98	0.110
4.37	-8.97	0.110
4.37	-8.96	0.110
4.37	-8.95	0.110
4.37	-8.94	0.110
4.38	-8.93	0.110
4.38	-8.93	0.110
4.38	-8.92	0.110
4.38	-8.91	0.110
4.38	-8.90	0.110
4.38	-8.89	0.110
4.39	-8.89	0.110
4.39	-8.88	0.110
4.39	-8.87	0.110
4.39	-8.86	0.110
4.39	-8.85	0.110
4.39	-8.84	0.110
4.40	-8.84	0.110
4.40	-8.83	0.110
4.40	-8.82	0.110
4.40	-8.81	0.110
4.40	-8.80	0.110
4.40	-8.79	0.110
4.40	-8.79	0.110
4.41	-8.78	0.110
4.41	-8.77	0.110
4.41	-8.76	0.110
4.41	-8.75	0.110
4.41	-8.74	0.110
4.41	-8.74	0.110
4.42	-8.73	0.110
4.42	-8.72	0.110
4.42	-8.71	0.110
4.42	-8.70	0.110
4.42	-8.69	0.110
4.43	-8.69	0.110
4.43	-8.68	0.110
4.43	-8.67	0.110
4.43	-8.66	0.110
4.43	-8.65	0.110
4.43	-8.64	0.110
4.44	-8.64	0.110
4.44	-8.63	0.110
4.44	-8.62	0.110
4.44	-8.61	0.110
4.44	-8.60	0.110
4.44	-8.59	0.110
4.45	-8.59	0.110
4.45	-8.58	0.110
4.45	-8.57	0.110
4.45	-8.56	0.110
4.45	-8.55	0.110
4.45	-8.54	0.110
4.45	-8.54	0.110
4.46	-8.53	0.110
4.46	-8.52	0.110
4.46	-8.51	0.110
4.46	-8.50	0.110
4.46	-8.49	0.110
4.46	-8.49	0.110
4.47	-8.48	0.110
4.47	-8.47	0.110
4.47	-8.46	0.110
4.47	-8.45	0.110
4.47	-8.44	0.110
4.48	-8.44	0.110
4.48	-8.43	0.110
4.48	-8.42	0.110
4.48	-8.41	0.110
4.48	-8.40	0.110
4.48	-8.39	0.110
4.49	-8.39	0.110
4.49	-8.38	0.110
4.49	-8.37	0.110
4.49	-8.36	0.110
4.49	-8.35	0.110
4.49	-8.34	0.110
4.50	-8.34	0.110
4.50	-8.33	0.110
4.50	-8.32	0.110
4.50	-8.31	0.110
4.50	-8.30	0.110
4.50	-8.29	0.110
4.50	-8.29	0.110
4.51	-8.28	0.110
4.51	-8.27	0.110
4.51	-8.26	0.110
4.51	-8.25	0.110
4.51	-8.24	0.110
4.51	-8.24	0.110
4.52	-8.23	0.110
4.52	-8.22	0.110
4.52	-8.21	0.110
4.52	-8.20	0.110
4.52	-8.19	0.110
4.53	-8.19	0.110
4.53	-8.18	0.110
4.53	-8.17	0.110
4.53	-8.16	0.110
4.53	-8.15	0.110
4.53	-8.15	0.110
4.54	-8.14	0.110
4.54	-8.13	0.110
4.54	-8.12	0.110
4.54	-8.11	0.110
4.54	-8.10	0.110
4.54	-8.09	0.110
4.55	-8.08	0.110
4.55	-8.08	0.110
4.55	-8.07	0.110
4.55	-8.06	0.110
4.55	-8.05	0.110
4.55	-8.04	0.110
4.55	-8.04	0.110
4.56	-8.03	0.110
4.56	-8.02	0.110
4.56	-8.01	0.110
4.56	-8.00	0.110
4.56	-7.99	0.110
4.56	-7.99	0.110
4.57	-7.98	0.110
4.57	-7.97	0.110
4.57	-7.96	0.110
4.57	-7.95	0.110
4.57	-7.94	0.110
4.58	-7.94	0.110
4.58	-7.93	0.110
4.58	-7.92	0.110
4.58	-7.91	0.110
4.58	-7.90	0.110
4.58	-7.89	0.110
4.59	-7.89	0.110
4.59	-7.88	0.110
4.59	-7.87	0.110
4.59	-7.86	0.110
4.59	-7.85	0.110
4.59	-7.84	0.110
4.60	-7.84	0.110
4.60	-7.83	0.110
4.60	-7.82	0.110
4.60	-7.81	0.110
4.60	-7.80	0.110
4.60	-7.79	0.110
4.60	-7.78	0.110
4.61	-7.78	0.110
4.61	-7.77	0.110
4.61	-7.76	0.110
4.61	-7.75	0.110
4.61	-7.74	0.110
4.61	-7.73	0.110
4.62	-7.73	0.110
4.62	-7.72	0.110
4.62	-7.71	0.110
4.62	-7.70	0.110
4.62	-7.69	0.110
4.63	-7.68	0.110
4.63	-7.68	0.111
4.63	-7.67	0.111
4.63	-7.66	0.111
4.63	-7.65	0.111
4.63	-7.64	0.111
4.64	-7.64	0.111
4.64	-7.63	0.111
4.64	-7.62	0.111
4.64	-7.61	0.111
4.64	-7.60	0.111
4.64	-7.59	0.111
4.65	-7.59	0.111
4.65	-7.58	0.111
4.65	-7.57	0.111
4.65	-7.56	0.111
4.65	-7.55	0.111
4.65	-7.54	0.111
4.65	-7.54	0.111
4.66	-7.53	0.111
4.66	-7.52	0.111
4.66	-7.51	0.111
4.66	-7.50	0.111
4.66	-7.49	0.111
4.66	-7.48	0.111
4.67	-7.48	0.111
4.67	-7.47	0.111
4.67	-7.46	0.111
4.67	-7.45	0.111
4.67	-7.44	0.111
4.68	-7.44	0.111
4.68	-7.43	0.111
4.68	-7.42	0.111
4.68	-7.41	0.111
4.68	-7.40	0.111
4.68	-7.39	0.111
4.69	-7.39	0.111
4.69	-7.38	0.111
4.69	-7.37	0.111
4.69	-7.36	0.111
4.69	-7.35	0.111
4.69	-7.35	0.111
4.70	-7.34	0.111
4.70	-7.33	0.111
4.70	-7.32	0.111
4.70	-7.31	0.111
4.70	-7.30	0.111
4.70	-7.29	0.111
4.70	-7.28	0.111
4.71	-7.28	0.111
4.71	-7.27	0.111
4.71	-7.26	0.111
4.71	-7.25	0.111
4.71	-7.24	0.111
4.71	-7.24	0.111
4.72	-7.23	0.111
4.72	-7.22	0.111
4.72	-7.21	0.111
4.72	-7.20	0.111
4.72	-7.19	0.111
4.73	-7.18	0.111
4.73	-7.18	0.111
4.73	-7.17	0.111
4.73	-7.16	0.111
4.73	-7.15	0.111
4.73	-7.14	0.111
4.74	-7.14	0.111
4.74	-7.13	0.111
4.74	-7.12	0.111
4.74	-7.11	0.111
4.74	-7.10	0.111
4.74	-7.09	0.111
4.75	-7.09	0.111
4.75	-7.08	0.111
4.75	-7.07	0.111
4.75	-7.06	0.111
4.75	-7.05	0.111
4.75	-7.04	0.111
4.75	-7.03	0.111
4.76	-7.03	0.111
4.76	-7.02	0.111
4.76	-7.01	0.111
4.76	-7.00	0.111
4.76	-6.99	0.111
4.76	-6.98	0.111
4.77	-6.98	0.111
4.77	-6.97	0.111
4.77	-6.96	0.111
4.77	-6.95	0.111
4.77	-6.94	0.111
4.78	-6.93	0.111
4.78	-6.93	0.111
4.78	-6.92	0.111
4.78	-6.91	0.111
4.78	-6.90	0.111
4.78	-6.89	0.111
4.79	-6.88	0.111
4.79	-6.88	0.111
4.79	-6.87	0.111
4.79	-6.86	0.111
4.79	-6.85	0.111
4.79	-6.84	0.111
4.80	-6.84	0.111
4.80	-6.83	0.111
4.80	-6.82	0.111
4.80	-6.81	0.111
4.80	-6.80	0.111
4.80	-6.79	0.111
4.80	-6.79	0.111
4.81	-6.78	0.111
4.81	-6.77	0.111
4.81	-6.76	0.111
4.81	-6.75	0.111
4.81	-6.74	0.111
4.81	-6.73	0.111
4.82	-6.73	0.111
4.82	-6.72	0.111
4.82	-6.71	0.111
4.82	-6.70	0.111
4.82	-6.69	0.111
4.83	-6.68	0.111
4.83	-6.68	0.111
4.83	-6.67	0.111
4.83	-6.66	0.111
4.83	-6.65	0.111
4.83	-6.64	0.111
4.84	-6.64	0.111
4.84	-6.63	0.111
4.84	-6.62	0.112
4.84	-6.61	0.112
4.84	-6.60	0.112
4.84	-6.59	0.112
4.85	-6.58	0.112
4.85	-6.58	0.112
4.85	-6.57	0.112
4.85	-6.56	0.112
4.85	-6.55	0.112
4.85	-6.54	0.112
4.85	-6.54	0.112
4.86	-6.53	0.112
4.86	-6.52	0.112
4.86	-6.51	0.112
4.86	-6.50	0.112
4.86	-6.49	0.112
4.86	-6.49	0.112
4.87	-6.48	0.112
4.87	-6.47	0.112
4.87	-6.46	0.112
4.87	-6.45	0.112
4.87	-6.44	0.112
4.88	-6.43	0.112
4.88	-6.43	0.112
4.88	-6.42	0.112
4.88	-6.41	0.112
4.88	-6.40	0.112
4.88	-6.39	0.112
4.89	-6.39	0.112
4.89	-6.38	0.112
4.89	-6.37	0.112
4.89	-6.36	0.112
4.89	-6.35	0.112
4.89	-6.34	0.112
4.90	-6.34	0.112
4.90	-6.33	0.112
4.90	-6.32	0.112
4.90	-6.31	0.112
4.90	-6.30	0.112
4.90	-6.29	0.112
4.90	-6.29	0.112
4.91	-6.28	0.112
4.91	-6.27	0.112
4.91	-6.26	0.112
4.91	-6.25	0.112
4.91	-6.24	0.112
4.91	-6.24	0.112
4.92	-6.23	0.112
4.92	-6.22	0.112
4.92	-6.21	0.112
4.92	-6.20	0.112
4.92	-6.19	0.112
4.93	-6.19	0.112
4.93	-6.18	0.112
4.93	-6.17	0.112
4.93	-6.16	0.112
4.93	-6.15	0.112
4.93	-6.14	0.112
4.94	-6.13	0.112
4.94	-6.13	0.112
4.94	-6.12	0.112
4.94	-6.11	0.112
4.94	-6.10	0.112
4.94	-6.09	0.112
4.95	-6.08	0.112
4.95	-6.08	0.112
4.95	-6.07	0.112
4.95	-6.06	0.112
4.95	-6.05	0.112
4.95	-6.04	0.112
4.95	-6.03	0.112
4.96	-6.03	0.112
4.96	-6.02	0.112
4.96	-6.01	0.112
4.96	-6.00	0.112
4.96	-5.99	0.112
4.96	-5.99	0.112
4.97	-5.98	0.112
4.97	-5.97	0.112
4.97	-5.96	0.112
4.97	-5.95	0.112
4.97	-5.94	0.112
4.98	-5.93	0.112
4.98	-5.93	0.112
4.98	-5.92	0.112
4.98	-5.91	0.112
4.98	-5.90	0.112
4.98	-5.89	0.112
4.99	-5.88	0.112
4.99	-5.88	0.112
4.99	-5.87	0.112
4.99	-5.86	0.112
4.99	-5.85	0.112
4.99	-5.84	0.112
5.00	-5.84	0.112
5.00	-5.83	0.112
5.00	-5.82	0.112
5.00	-5.81	0.112
5.00	-5.80	0.112
5.00	-5.79	0.112
5.00	-5.79	0.112
5.01	-5.78	0.112
5.01	-5.77	0.112
5.01	-5.76	0.112
5.01	-5.75	0.112
5.01	-5.74	0.112
5.01	-5.73	0.112
5.02	-5.73	0.112
5.02	-5.72	0.112
5.02	-5.71	0.112
5.02	-5.70	0.112
5.02	-5.69	0.112
5.03	-5.69	0.112
5.03	-5.68	0.112
5.03	-5.67	0.112
5.03	-5.66	0.112
5.03	-5.65	0.112
5.03	-5.64	0.112
5.04	-5.63	0.112
5.04	-5.63	0.112
5.04	-5.62	0.113
5.04	-5.61	0.113
5.04	-5.60	0.113
5.04	-5.59	0.113
5.05	-5.58	0.113
5.05	-5.58	0.113
5.05	-5.57	0.113
5.05	-5.56	0.113
5.05	-5.55	0.113
5.05	-5.54	0.113
5.05	-5.54	0.113
5.06	-5.53	0.113
5.06	-5.52	0.113
5.06	-5.51	0.113
5.06	-5.50	0.113
5.06	-5.49	0.113
5.06	-5.48	0.113
5.07	-5.48	0.113
5.07	-5.47	0.113
5.07	-5.46	0.113
5.07	-5.45	0.113
5.07	-5.44	0.113
5.08	-5.43	0.113
5.08	-5.43	0.113
5.08	-5.42	0.113
5.08	-5.41	0.113
5.08	-5.40	0.113
5.08	-5.39	0.113
5.09	-5.38	0.113
5.09	-5.38	0.113
5.09	-5.37	0.113
5.09	-5.36	0.113
5.09	-5.35	0.113
5.09	-5.34	0.113
5.10	-5.33	0.113
5.10	-5.33	0.113
5.10	-5.32	0.113
5.10	-5.31	0.113
5.10	-5.30	0.113
5.10	-5.29	0.113
5.10	-5.28	0.113
5.11	-5.28	0.113
5.11	-5.27	0.113
5.11	-5.26	0.113
5.11	-5.25	0.113
5.11	-5.24	0.113
5.11	-5.24	0.113
5.12	-5.23	0.113
5.12	-5.22	0.113
5.12	-5.21	0.113
5.12	-5.20	0.113
5.12	-5.19	0.113
5.13	-5.18	0.113
5.13	-5.18	0.113
5.13	-5.17	0.113
5.13	-5.16	0.113
5.13	-5.15	0.113
5.13	-5.14	0.113
5.14	-5.13	0.113
5.14	-5.13	0.113
5.14	-5.12	0.113
5.14	-5.11	0.113
5.14	-5.10	0.113
5.14	-5.09	0.113
5.15	-5.08	0.113
5.15	-5.08	0.113
5.15	-5.07	0.113
5.15	-5.06	0.113
5.15	-5.05	0.113
5.15	-5.04	0.113
5.15	-5.03	0.113
5.16	-5.03	0.113
5.16	-5.02	0.113
5.16	-5.01	0.113
5.16	-5.00	0.113
5.16	-4.99	0.113
5.16	-4.99	0.113
5.17	-4.98	0.113
5.17	-4.97	0.113
5.17	-4.96	0.113
5.17	-4.95	0.113
5.17	-4.94	0.113
5.18	-4.93	0.113
5.18	-4.93	0.113
5.18	-4.92	0.113
5.18	-4.91	0.113
5.18	-4.90	0.114
5.18	-4.89	0.114
5.19	-4.88	0.114
5.19	-4.88	0.114
5.19	-4.87	0.114
5.19	-4.86	0.114
5.19	-4.85	0.114
5.19	-4.84	0.114
5.20	-4.84	0.114
5.20	-4.83	0.114
5.20	-4.82	0.114
5.20	-4.81	0.114
5.20	-4.80	0.114
5.20	-4.79	0.114
5.20	-4.78	0.114
5.21	-4.78	0.114
5.21	-4.77	0.114
5.21	-4.76	0.114
5.21	-4.75	0.114
5.21	-4.74	0.114
5.21	-4.73	0.114
5.22	-4.73	0.114
5.22	-4.72	0.114
5.22	-4.71	0.114
5.22	-4.70	0.114
5.22	-4.69	0.114
5.23	-4.69	0.114
5.23	-4.68	0.114
5.23	-4.67	0.114
5.23	-4.66	0.114
5.23	-4.65	0.114
5.23	-4.64	0.114
5.24	-4.63	0.114
5.24	-4.63	0.114
5.24	-4.62	0.114
5.24	-4.61	0.114
5.24	-4.60	0.114
5.24	-4.59	0.114
5.25	-4.58	0.114
5.25	-4.58	0.114
5.25	-4.57	0.114
5.25	-4.56	0.114
5.25	-4.55	0.114
5.25	-4.54	0.114
5.25	-4.53	0.114
5.26	-4.53	0.114
5.26	-4.52	0.114
5.26	-4.51	0.114
5.26	-4.50	0.114
5.26	-4.49	0.114
5.26	-4.48	0.114
5.27	-4.48	0.114
5.27	-4.47	0.114
5.27	-4.46	0.114
5.27	-4.45	0.114
5.27	-4.44	0.114
5.28	-4.43	0.114
5.28	-4.43	0.114
5.28	-4.42	0.114
5.28	-4.41	0.114
5.28	-4.40	0.114
5.28	-4.39	0.114
5.29	-4.39	0.114
5.29	-4.38	0.114
5.29	-4.37	0.114
5.29	-4.36	0.114
5.29	-4.35	0.114
5.29	-4.34	0.114
5.30	-4.33	0.114
5.30	-4.33	0.114
5.30	-4.32	0.114
5.30	-4.31	0.114
5.30	-4.30	0.114
5.30	-4.29	0.114
5.30	-4.28	0.114
5.31	-4.28	0.114
5.31	-4.27	0.114
5.31	-4.26	0.114
5.31	-4.25	0.115
5.31	-4.24	0.115
5.31	-4.23	0.115
5.32	-4.23	0.115
5.32	-4.22	0.115
5.32	-4.21	0.115
5.32	-4.20	0.115
5.32	-4.19	0.115
5.33	-4.18	0.115
5.33	-4.18	0.115
5.33	-4.17	0.115
5.33	-4.16	0.115
5.33	-4.15	0.115
5.33	-4.14	0.115
5.34	-4.14	0.115
5.34	-4.13	0.115
5.34	-4.12	0.115
5.34	-4.11	0.115
5.34	-4.10	0.115
5.34	-4.09	0.115
5.35	-4.08	0.115
5.35	-4.08	0.115
5.35	-4.07	0.115
5.35	-4.06	0.115
5.35	-4.05	0.115
5.35	-4.04	0.115
5.35	-4.03	0.115
5.36	-4.03	0.115
5.36	-4.02	0.115
5.36	-4.01	0.115
5.36	-4.00	0.115
5.36	-3.99	0.115
5.36	-3.99	0.115
5.37	-3.98	0.115
5.37	-3.97	0.115
5.37	-3.96	0.115
5.37	-3.95	0.115
5.37	-3.94	0.115
5.38	-3.93	0.115
5.38	-3.93	0.115
5.38	-3.92	0.115
5.38	-3.91	0.116
5.38	-3.90	0.116
5.38	-3.89	0.116
5.39	-3.88	0.116
5.39	-3.88	0.116
5.39	-3.87	0.116
5.39	-3.86	0.116
5.39	-3.85	0.116
5.39	-3.84	0.116
5.40	-3.83	0.116
5.40	-3.83	0.116
5.40	-3.82	0.116
5.40	-3.81	0.116
5.40	-3.80	0.116
5.40	-3.79	0.116
5.40	-3.78	0.116
5.41	-3.78	0.116
5.41	-3.77	0.116
5.41	-3.76	0.116
5.41	-3.75	0.116
5.41	-3.74	0.116
5.41	-3.74	0.116
5.42	-3.73	0.116
5.42	-3.72	0.116
5.42	-3.71	0.116
5.42	-3.70	0.116
5.42	-3.69	0.116
5.43	-3.68	0.116
5.43	-3.68	0.116
5.43	-3.67	0.116
5.43	-3.66	0.116
5.43	-3.65	0.117
5.43	-3.64	0.117
5.44	-3.63	0.117
5.44	-3.63	0.117
5.44	-3.62	0.117
5.44	-3.61	0.117
5.44	-3.60	0.117
5.44	-3.59	0.117
5.45	-3.58	0.117
5.45	-3.58	0.117
5.45	-3.57	0.117
5.45	-3.56	0.117
5.45	-3.55	0.117
5.45	-3.54	0.117
5.45	-3.54	0.117
5.46	-3.53	0.117
5.46	-3.52	0.117
5.46	-3.51	0.117
5.46	-3.50	0.117
5.46	-3.49	0.117
5.46	-3.49	0.117
5.47	-3.48	0.117
5.47	-3.47	0.117
5.47	-3.46	0.117
5.47	-3.45	0.117
5.47	-3.44	0.117
5.48	-3.43	0.117
5.48	-3.43	0.117
5.48	-3.42	0.117
5.48	-3.41	0.117
5.48	-3.40	0.117
5.48	-3.39	0.117
5.49	-3.39	0.117
5.49	-3.38	0.117
5.49	-3.37	0.117
5.49	-3.36	0.117
5.49	-3.35	0.118
5.49	-3.34	0.118
5.50	-3.33	0.118
5.50	-3.33	0.118
5.50	-3.32	0.118
5.50	-3.31	0.118
5.50	-3.30	0.118
5.50	-3.29	0.118
5.50	-3.29	0.118
5.51	-3.28	0.118
5.51	-3.27	0.118
5.51	-3.26	0.118
5.51	-3.25	0.118
5.51	-3.24	0.118
5.51	-3.24	0.118
5.52	-3.23	0.118
5.52	-3.22	0.118
5.52	-3.21	0.118
5.52	-3.20	0.118
5.52	-3.19	0.118
5.53	-3.18	0.118
5.53	-3.18	0.118
5.53	-3.17	0.118
5.53	-3.16	0.118
5.53	-3.15	0.119
5.53	-3.14	0.119
5.54	-3.14	0.119
5.54	-3.13	0.119
5.54	-3.12	0.119
5.54	-3.11	0.119
5.54	-3.10	0.119
5.54	-3.09	0.119
5.55	-3.08	0.119
5.55	-3.08	0.119
5.55	-3.07	0.119
5.55	-3.06	0.119
5.55	-3.05	0.119
5.55	-3.04	0.119
5.55	-3.04	0.119
5.56	-3.03	0.119
5.56	-3.02	0.119
5.56	-3.01	0.119
5.56	-3.00	0.119
5.56	-2.99	0.119
5.56	-2.99	0.120
5.57	-2.98	0.120
5.57	-2.97	0.120
5.57	-2.96	0.120
5.57	-2.95	0.120
5.57	-2.94	0.120
5.58	-2.94	0.120
5.58	-2.93	0.120
5.58	-2.92	0.120
5.58	-2.91	0.120
5.58	-2.90	0.120
5.58	-2.89	0.120
5.59	-2.89	0.121
5.59	-2.88	0.121
5.59	-2.87	0.121
5.59	-2.86	0.121
5.59	-2.85	0.121
5.59	-2.84	0.121
5.60	-2.84	0.121
5.60	-2.83	0.121
5.60	-2.82	0.121
5.60	-2.81	0.121
5.60	-2.80	0.121
5.60	-2.79	0.121
5.60	-2.79	0.122
5.61	-2.78	0.122
5.61	-2.77	0.122
5.61	-2.76	0.122
5.61	-2.75	0.122
5.61	-2.74	0.122
5.61	-2.74	0.122
5.62	-2.73	0.122
5.62	-2.72	0.122
5.62	-2.71	0.123
5.62	-2.70	0.123
5.62	-2.70	0.123
5.63	-2.69	0.123
5.63	-2.68	0.123
5.63	-2.67	0.123
5.63	-2.66	0.123
5.63	-2.65	0.123
5.63	-2.64	0.124
5.64	-2.64	0.124
5.64	-2.63	0.124
5.64	-2.62	0.124
5.64	-2.61	0.124
5.64	-2.60	0.124
5.64	-2.60	0.124
5.65	-2.59	0.125
5.65	-2.58	0.125
5.65	-2.57	0.125
5.65	-2.56	0.125
5.65	-2.55	0.125
5.65	-2.54	0.126
5.65	-2.54	0.126
5.66	-2.53	0.126
5.66	-2.52	0.127
5.66	-2.51	0.127
5.66	-2.50	0.128
5.66	-2.50	0.128
5.66	-2.49	0.129
5.67	-2.48	0.129
5.67	-2.47	0.130
5.67	-2.46	0.130
5.67	-2.46	0.131
5.67	-2.45	0.131
5.68	-2.44	0.132
5.68	-2.43	0.132
5.68	-2.42	0.132
5.68	-2.41	0.132
5.68	-2.41	0.132
5.68	-2.40	0.133
5.69	-2.39	0.133
5.69	-2.38	0.133
5.69	-2.37	0.133
5.69	-2.36	0.134
5.69	-2.36	0.134
5.69	-2.35	0.135
5.70	-2.34	0.135
5.70	-2.33	0.135
5.70	-2.32	0.135
5.70	-2.31	0.136
5.70	-2.31	0.136
5.70	-2.30	0.136
5.70	-2.29	0.137
5.71	-2.28	0.137
5.71	-2.27	0.138
5.71	-2.26	0.139
5.71	-2.25	0.140
5.71	-2.25	0.141
5.71	-2.24	0.142
5.72	-2.23	0.143
5.72	-2.22	0.144
5.72	-2.21	0.146
5.72	-2.21	0.146
5.72	-2.20	0.147
5.73	-2.19	0.148
5.73	-2.18	0.148
5.73	-2.17	0.149
5.73	-2.16	0.150
5.73	-2.16	0.151
5.73	-2.15	0.152
5.74	-2.14	0.153
5.74	-2.13	0.154
5.74	-2.12	0.155
5.74	-2.12	0.156
5.74	-2.11	0.157
5.74	-2.10	0.158
5.75	-2.09	0.160
5.75	-2.08	0.161
5.75	-2.08	0.162
5.75	-2.07	0.163
5.75	-2.06	0.164
5.75	-2.05	0.165
5.75	-2.04	0.167
5.76	-2.03	0.168
5.76	-2.03	0.169
5.76	-2.02	0.170
5.76	-2.01	0.172
5.76	-2.00	0.174
5.76	-1.99	0.175
5.77	-1.98	0.177
5.77	-1.98	0.178
5.77	-1.97	0.179
5.77	-1.96	0.181
5.77	-1.95	0.183
5.78	-1.94	0.185
5.78	-1.94	0.187
5.78	-1.93	0.189
5.78	-1.92	0.191
5.78	-1.91	0.193
5.78	-1.90	0.195
5.79	-1.90	0.197
5.79	-1.89	0.199
5.79	-1.88	0.200
5.79	-1.87	0.201
5.79	-1.86	0.203
5.79	-1.86	0.205
5.80	-1.85	0.208
5.80	-1.84	0.211
5.80	-1.83	0.215
5.80	-1.82	0.218
5.80	-1.82	0.222
5.80	-1.81	0.225
5.80	-1.80	0.228
5.81	-1.79	0.232
5.81	-1.78	0.234
5.81	-1.78	0.238
5.81	-1.77	0.242
5.81	-1.76	0.246
5.81	-1.75	0.250
5.82	-1.74	0.254
5.82	-1.74	0.259
5.82	-1.73	0.264
5.82	-1.72	0.268
5.82	-1.71	0.273
5.83	-1.71	0.277
5.83	-1.70	0.282
5.83	-1.69	0.287
5.83	-1.68	0.292
5.83	-1.68	0.298
5.83	-1.67	0.304
5.84	-1.66	0.310
5.84	-1.65	0.317
5.84	-1.65	0.325
5.84	-1.64	0.332
5.84	-1.63	0.340
5.84	-1.62	0.347
5.85	-1.62	0.355
5.85	-1.61	0.364
5.85	-1.60	0.372
5.85	-1.59	0.382
5.85	-1.59	0.391
5.85	-1.58	0.401
5.85	-1.57	0.411
5.86	-1.57	0.423
5.86	-1.56	0.434
5.86	-1.55	0.446
5.86	-1.55	0.456
5.86	-1.54	0.468
5.86	-1.53	0.480
5.87	-1.52	0.493
5.87	-1.52	0.505
5.87	-1.51	0.517
5.87	-1.51	0.530
5.87	-1.50	0.544
5.88	-1.49	0.558
5.88	-1.49	0.573
5.88	-1.48	0.587
5.88	-1.47	0.602
5.88	-1.47	0.618
5.88	-1.46	0.633
5.89	-1.45	0.649
5.89	-1.45	0.665
5.89	-1.44	0.681
5.89	-1.44	0.697
5.89	-1.43	0.715
5.89	-1.43	0.732
5.90	-1.42	0.749
5.90	-1.41	0.767
5.90	-1.41	0.784
5.90	-1.41	0.802
5.90	-1.40	0.819
5.90	-1.39	0.837
5.90	-1.39	0.855
5.91	-1.38	0.872
5.91	-1.38	0.890
5.91	-1.37	0.908
5.91	-1.37	0.928
5.91	-1.36	0.947
5.91	-1.36	0.965
5.92	-1.35	0.984
5.92	-1.35	1.003
5.92	-1.34	1.021
5.92	-1.34	1.039
5.92	-1.33	1.058
5.93	-1.33	1.075
5.93	-1.33	1.093
5.93	-1.32	1.112
5.93	-1.32	1.130
5.93	-1.31	1.149
5.93	-1.31	1.168
5.94	-1.30	1.187
5.94	-1.30	1.206
5.94	-1.29	1.224
5.94	-1.29	1.242
5.94	-1.28	1.260
5.94	-1.28	1.278
5.95	-1.28	1.296
5.95	-1.27	1.314
5.95	-1.27	1.332
5.95	-1.27	1.351
5.95	-1.26	1.370
5.95	-1.26	1.389
5.95	-1.25	1.407
5.96	-1.25	1.426
5.96	-1.24	1.444
5.96	-1.24	1.461
5.96	-1.24	1.479
5.96	-1.23	1.497
5.96	-1.23	1.514
5.97	-1.22	1.531
5.97	-1.22	1.549
5.97	-1.21	1.567
5.97	-1.21	1.585
5.97	-1.21	1.603
5.98	-1.20	1.622
5.98	-1.20	1.641
5.98	-1.20	1.659
5.98	-1.19	1.677
5.98	-1.19	1.695
5.98	-1.19	1.712
5.99	-1.18	1.730
5.99	-1.18	1.747
5.99	-1.17	1.765
5.99	-1.17	1.781
5.99	-1.17	1.799
5.99	-1.16	1.816
6.00	-1.16	1.834
6.00	-1.16	1.852
6.00	-1.15	1.869
6.00	-1.15	1.887
6.00	-1.14	1.904
6.00	-1.14	1.922
6.00	-1.14	1.940
6.01	-1.13	1.958
6.01	-1.13	1.977
6.01	-1.12	1.995
6.01	-1.12	2.014
6.01	-1.12	2.032
6.01	-1.11	2.050
6.02	-1.11	2.068
6.02	-1.11	2.086
6.02	-1.10	2.103
6.02	-1.10	2.121
6.02	-1.09	2.137
6.03	-1.09	2.152
6.03	-1.09	2.168
6.03	-1.08	2.182
6.03	-1.08	2.197
6.03	-1.08	2.212
6.03	-1.07	2.228
6.04	-1.07	2.246
6.04	-1.07	2.266
6.04	-1.06	2.286
6.04	-1.06	2.307
6.04	-1.06	2.328
6.04	-1.05	2.349
6.05	-1.05	2.370
6.05	-1.05	2.389
6.05	-1.04	2.407
6.05	-1.04	2.424
6.05	-1.03	2.439
6.05	-1.03	2.452
6.05	-1.03	2.466
6.06	-1.02	2.481
6.06	-1.02	2.496
6.06	-1.01	2.512
6.06	-1.01	2.528
6.06	-1.01	2.545
6.06	-1.01	2.563
6.07	-1.00	2.583
6.07	-1.00	2.602
6.07	-0.99	2.621
6.07	-0.99	2.639
6.07	-0.99	2.656
6.08	-0.98	2.674
6.08	-0.98	2.692
6.08	-0.98	2.710
6.08	-0.97	2.727
6.08	-0.97	2.743
6.08	-0.96	2.760
6.09	-0.96	2.776
6.09	-0.96	2.793
6.09	-0.95	2.810
6.09	-0.95	2.827
6.09	-0.95	2.844
6.09	-0.94	2.862
6.10	-0.94	2.880
6.10	-0.94	2.898
6.10	-0.93	2.916
6.10	-0.93	2.934
6.10	-0.93	2.950
6.10	-0.92	2.968
6.10	-0.92	2.985
6.11	-0.92	3.001
6.11	-0.91	3.017
6.11	-0.91	3.035
6.11	-0.91	3.052
6.11	-0.90	3.068
6.11	-0.90	3.086
6.12	-0.89	3.103
6.12	-0.89	3.120
6.12	-0.88	3.138
6.12	-0.88	3.155
6.12	-0.88	3.172
6.13	-0.87	3.188
6.13	-0.87	3.204
6.13	-0.87	3.220
6.13	-0.86	3.237
6.13	-0.86	3.254
6.13	-0.86	3.272
6.14	-0.85	3.288
6.14	-0.85	3.305
6.14	-0.85	3.322
6.14	-0.84	3.338
6.14	-0.84	3.355
6.14	-0.84	3.372
6.15	-0.83	3.388
6.15	-0.83	3.404
6.15	-0.82	3.421
6.15	-0.82	3.437
6.15	-0.82	3.454
6.15	-0.81	3.472
6.15	-0.81	3.489
6.16	-0.81	3.506
6.16	-0.80	3.523
6.16	-0.80	3.540
6.16	-0.79	3.557
6.16	-0.79	3.574
6.16	-0.79	3.591
6.17	-0.78	3.608
6.17	-0.78	3.625
6.17	-0.78	3.642
6.17	-0.77	3.659
6.17	-0.77	3.676
6.18	-0.76	3.693
6.18	-0.76	3.710
6.18	-0.76	3.727
6.18	-0.75	3.744
6.18	-0.75	3.761
6.18	-0.75	3.778
6.19	-0.74	3.795
6.19	-0.74	3.812
6.19	-0.73	3.828
6.19	-0.73	3.844
6.19	-0.73	3.860
6.19	-0.72	3.877
6.20	-0.72	3.893
6.20	-0.72	3.910
6.20	-0.71	3.928
6.20	-0.71	3.945
6.20	-0.71	3.962
6.20	-0.70	3.978
6.20	-0.70	3.995
6.21	-0.70	4.011
6.21	-0.69	4.027
6.21	-0.69	4.043
6.21	-0.68	4.059
6.21	-0.68	4.076
6.21	-0.68	4.092
6.22	-0.67	4.109
6.22	-0.67	4.126
6.22	-0.67	4.142
6.22	-0.66	4.157
6.22	-0.66	4.174
6.23	-0.65	4.190
6.23	-0.65	4.205
6.23	-0.65	4.222
6.23	-0.64	4.238
6.23	-0.64	4.255
6.23	-0.64	4.272
6.24	-0.63	4.289
6.24	-0.63	4.306
6.24	-0.62	4.322
6.24	-0.62	4.338
6.24	-0.62	4.354
6.24	-0.61	4.369
6.25	-0.61	4.384
6.25	-0.60	4.400
6.25	-0.60	4.415
6.25	-0.60	4.430
6.25	-0.59	4.446
6.25	-0.59	4.462
6.25	-0.59	4.478
6.26	-0.58	4.494
6.26	-0.58	4.510
6.26	-0.57	4.526
6.26	-0.57	4.542
6.26	-0.57	4.558
6.26	-0.56	4.574
6.27	-0.56	4.591
6.27	-0.55	4.607
6.27	-0.55	4.623
6.27	-0.55	4.641
6.27	-0.54	4.657
6.28	-0.54	4.674
6.28	-0.54	4.690
6.28	-0.53	4.706
6.28	-0.53	4.721
6.28	-0.52	4.737
6.28	-0.52	4.753
6.29	-0.52	4.768
6.29	-0.51	4.783
6.29	-0.51	4.798
6.29	-0.51	4.814
6.29	-0.50	4.831
6.29	-0.50	4.846
6.30	-0.49	4.862
6.30	-0.49	4.877
6.30	-0.49	4.892
6.30	-0.48	4.908
6.30	-0.48	4.923
6.30	-0.47	4.939
6.30	-0.47	4.955
6.31	-0.46	4.970
6.31	-0.46	4.985
6.31	-0.46	5.002
6.31	-0.45	5.018
6.31	-0.45	5.034
6.31	-0.45	5.049
6.32	-0.44	5.064
6.32	-0.44	5.079
6.32	-0.43	5.094
6.32	-0.43	5.110
6.32	-0.43	5.125
6.33	-0.42	5.140
6.33	-0.42	5.154
6.33	-0.41	5.170
6.33	-0.41	5.185
6.33	-0.41	5.201
6.33	-0.40	5.216
6.34	-0.40	5.231
6.34	-0.39	5.244
6.34	-0.39	5.258
6.34	-0.39	5.272
6.34	-0.38	5.285
6.34	-0.38	5.300
6.35	-0.37	5.313
6.35	-0.37	5.326
6.35	-0.36	5.339
6.35	-0.36	5.353
6.35	-0.36	5.367
6.35	-0.35	5.382
6.35	-0.35	5.396
6.36	-0.34	5.410
6.36	-0.34	5.424
6.36	-0.34	5.439
6.36	-0.33	5.453
6.36	-0.33	5.468
6.36	-0.32	5.482
6.37	-0.32	5.497
6.37	-0.31	5.512
6.37	-0.31	5.526
6.37	-0.31	5.542
6.37	-0.30	5.558
6.38	-0.30	5.574
6.38	-0.29	5.590
6.38	-0.29	5.606
6.38	-0.29	5.622
6.38	-0.28	5.637
6.38	-0.28	5.651
6.39	-0.27	5.665
6.39	-0.27	5.677
6.39	-0.26	5.690
6.39	-0.26	5.701
6.39	-0.26	5.712
6.39	-0.25	5.722
6.40	-0.25	5.733
6.40	-0.24	5.744
6.40	-0.24	5.755
6.40	-0.23	5.765
6.40	-0.23	5.777
6.40	-0.22	5.788
6.40	-0.22	5.798
6.41	-0.21	5.807
6.41	-0.21	5.817
6.41	-0.21	5.828
6.41	-0.20	5.839
6.41	-0.20	5.848
6.41	-0.19	5.858
6.42	-0.19	5.868
6.42	-0.18	5.877
6.42	-0.18	5.886
6.42	-0.17	5.896
6.42	-0.17	5.904
6.43	-0.16	5.912
6.43	-0.16	5.920
6.43	-0.15	5.927
6.43	-0.15	5.936
6.43	-0.14	5.946
6.43	-0.14	5.956
6.44	-0.13	5.968
6.44	-0.13	5.982
6.44	-0.12	5.998
6.44	-0.12	6.014
6.44	-0.11	6.031
6.44	-0.11	6.048
6.45	-0.10	6.065
6.45	-0.10	6.080
6.45	-0.09	6.093
6.45	-0.09	6.104
6.45	-0.08	6.113
6.45	-0.08	6.120
6.45	-0.07	6.126
6.46	-0.07	6.130
6.46	-0.06	6.133
6.46	-0.06	6.136
6.46	-0.05	6.137
6.46	-0.05	6.138
6.46	-0.04	6.140
6.47	-0.04	6.139
6.47	-0.03	6.138
6.47	-0.03	6.136
6.47	-0.02	6.132
6.47	-0.01	6.128
6.48	-0.01	6.123
6.48	0.00	6.117
6.48	0.01	6.111
6.48	0.01	6.105
6.48	0.02	6.097
6.48	0.03	6.091
6.49	0.03	6.084
6.49	0.04	6.078
6.49	0.05	6.072
6.49	0.05	6.065
6.49	0.06	6.059
6.49	0.07	6.053
6.50	0.08	6.048
6.50	0.08	6.042
6.50	0.09	6.038
6.50	0.10	6.035
6.50	0.11	6.032
6.50	0.11	6.030
6.50	0.12	6.029
6.51	0.13	6.028
6.51	0.14	6.028
6.51	0.14	6.028
6.51	0.15	6.028
6.51	0.16	6.030
6.51	0.17	6.031
6.52	0.18	6.034
6.52	0.18	6.037
6.52	0.19	6.040
6.52	0.20	6.041
6.52	0.21	6.042
6.53	0.21	6.043
6.53	0.22	6.045
6.53	0.23	6.051
6.53	0.24	6.059
6.53	0.24	6.068
6.53	0.25	6.076
6.54	0.26	6.084
6.54	0.26	6.091
6.54	0.27	6.098
6.54	0.28	6.101
6.54	0.29	6.103
6.54	0.30	6.101
6.55	0.30	6.097
6.55	0.31	6.091
6.55	0.32	6.085
6.55	0.33	6.071
6.55	0.33	6.058
6.55	0.34	6.043
6.55	0.35	6.027
6.56	0.36	6.009
6.56	0.37	5.988
6.56	0.38	5.964
6.56	0.39	5.939
6.56	0.40	5.910
6.56	0.40	5.881
6.57	0.41	5.850
6.57	0.42	5.817
6.57	0.43	5.784
6.57	0.45	5.750
6.57	0.46	5.717
6.58	0.47	5.684
6.58	0.48	5.650
6.58	0.49	5.615
6.58	0.50	5.579
6.58	0.51	5.542
6.58	0.52	5.505
6.59	0.54	5.469
6.59	0.55	5.432
6.59	0.56	5.397
6.59	0.57	5.364
6.59	0.59	5.333
6.59	0.60	5.304
6.60	0.61	5.277
6.60	0.62	5.250
6.60	0.64	5.223
6.60	0.65	5.196
6.60	0.67	5.169
6.60	0.68	5.141
6.60	0.69	5.112
6.61	0.70	5.081
6.61	0.72	5.048
6.61	0.73	5.012
6.61	0.74	4.973
6.61	0.76	4.931
6.61	0.77	4.886
6.62	0.79	4.834
6.62	0.80	4.781
6.62	0.82	4.725
6.62	0.83	4.666
6.62	0.85	4.606
6.63	0.86	4.541
6.63	0.88	4.476
6.63	0.90	4.409
6.63	0.92	4.341
6.63	0.93	4.271
6.63	0.95	4.201
6.64	0.97	4.129
6.64	0.98	4.057
6.64	1.00	3.986
6.64	1.02	3.916
6.64	1.04	3.849
6.64	1.06	3.783
6.65	1.08	3.721
6.65	1.10	3.663
6.65	1.12	3.608
6.65	1.14	3.557
6.65	1.16	3.509
6.65	1.18	3.465
6.65	1.20	3.423
6.66	1.22	3.384
6.66	1.24	3.347
6.66	1.26	3.310
6.66	1.28	3.274
6.66	1.30	3.239
6.66	1.31	3.205
6.67	1.33	3.171
6.67	1.35	3.137
6.67	1.37	3.103
6.67	1.39	3.067
6.67	1.41	3.031
6.68	1.43	2.994
6.68	1.45	2.956
6.68	1.47	2.917
6.68	1.49	2.876
6.68	1.51	2.834
6.68	1.52	2.790
6.69	1.54	2.746
6.69	1.56	2.700
6.69	1.58	2.654
6.69	1.60	2.606
6.69	1.62	2.558
6.69	1.64	2.510
6.70	1.66	2.464
6.70	1.68	2.419
6.70	1.70	2.376
6.70	1.72	2.335
6.70	1.74	2.296
6.70	1.76	2.260
6.70	1.78	2.226
6.71	1.80	2.194
6.71	1.82	2.163
6.71	1.83	2.134
6.71	1.85	2.105
6.71	1.87	2.077
6.71	1.89	2.049
6.72	1.91	2.023
6.72	1.93	1.997
6.72	1.95	1.972
6.72	1.97	1.949
6.72	1.98	1.925
6.73	2.00	1.903
6.73	2.02	1.880
6.73	2.04	1.858
6.73	2.06	1.837
6.73	2.07	1.816
6.73	2.09	1.794
6.74	2.11	1.773
6.74	2.13	1.752
6.74	2.14	1.733
6.74	2.16	1.713
6.74	2.18	1.694
6.74	2.20	1.676
6.75	2.21	1.658
6.75	2.23	1.640
6.75	2.25	1.622
6.75	2.26	1.605
6.75	2.28	1.589
6.75	2.30	1.571
6.75	2.31	1.554
6.76	2.33	1.537
6.76	2.34	1.520
6.76	2.36	1.504
6.76	2.38	1.488
6.76	2.39	1.473
6.76	2.41	1.456
6.77	2.42	1.440
6.77	2.44	1.425
6.77	2.46	1.411
6.77	2.47	1.396
6.77	2.49	1.381
6.78	2.50	1.366
6.78	2.52	1.352
6.78	2.53	1.339
6.78	2.55	1.326
6.78	2.56	1.312
6.78	2.57	1.298
6.79	2.59	1.284
6.79	2.60	1.270
6.79	2.62	1.257
6.79	2.63	1.244
6.79	2.65	1.232
6.79	2.66	1.221
6.80	2.68	1.210
6.80	2.69	1.199
6.80	2.71	1.189
6.80	2.72	1.178
6.80	2.73	1.165
6.80	2.75	1.152
6.80	2.76	1.138
6.81	2.77	1.123
6.81	2.79	1.109
6.81	2.80	1.095
6.81	2.81	1.083
6.81	2.83	1.072
6.81	2.84	1.063
6.82	2.86	1.057
6.82	2.87	1.050
6.82	2.88	1.044
6.82	2.89	1.037
6.82	2.91	1.029
6.83	2.92	1.020
6.83	2.93	1.010
6.83	2.95	0.998
6.83	2.96	0.986
6.83	2.97	0.973
6.83	2.98	0.962
6.84	3.00	0.951
6.84	3.01	0.940
6.84	3.02	0.931
6.84	3.04	0.922
6.84	3.05	0.914
6.84	3.06	0.906
6.85	3.07	0.899
6.85	3.08	0.892
6.85	3.10	0.884
6.85	3.11	0.876
6.85	3.12	0.867
6.85	3.13	0.859
6.85	3.15	0.851
6.86	3.16	0.843
6.86	3.17	0.836
6.86	3.18	0.828
6.86	3.19	0.820
6.86	3.21	0.812
6.86	3.22	0.805
6.87	3.23	0.798
6.87	3.24	0.791
6.87	3.25	0.783
6.87	3.26	0.776
6.87	3.28	0.769
6.88	3.29	0.763
6.88	3.30	0.756
6.88	3.31	0.748
6.88	3.32	0.741
6.88	3.33	0.736
6.88	3.35	0.730
6.89	3.36	0.724
6.89	3.37	0.717
6.89	3.38	0.712
6.89	3.39	0.705
6.89	3.40	0.699
6.89	3.41	0.694
6.90	3.42	0.688
6.90	3.44	0.682
6.90	3.45	0.676
6.90	3.46	0.670
6.90	3.47	0.664
6.90	3.48	0.659
6.90	3.49	0.653
6.91	3.50	0.648
6.91	3.51	0.643
6.91	3.52	0.638
6.91	3.53	0.632
6.91	3.54	0.627
6.91	3.55	0.623
6.92	3.57	0.619
6.92	3.58	0.613
6.92	3.59	0.609
6.92	3.60	0.603
6.92	3.61	0.598
6.93	3.62	0.594
6.93	3.63	0.589
6.93	3.64	0.584
6.93	3.65	0.579
6.93	3.66	0.574
6.93	3.67	0.570
6.94	3.68	0.566
6.94	3.69	0.561
6.94	3.70	0.559
6.94	3.71	0.554
6.94	3.72	0.550
6.94	3.73	0.546
6.95	3.74	0.543
6.95	3.75	0.538
6.95	3.76	0.535
6.95	3.77	0.531
6.95	3.78	0.527
6.95	3.79	0.522
6.95	3.80	0.518
6.96	3.81	0.515
6.96	3.82	0.512
6.96	3.83	0.508
6.96	3.84	0.504
6.96	3.85	0.500
6.96	3.86	0.496
6.97	3.87	0.492
6.97	3.88	0.489
6.97	3.89	0.487
6.97	3.90	0.484
6.97	3.91	0.481
6.98	3.92	0.478
6.98	3.93	0.475
6.98	3.94	0.471
6.98	3.95	0.468
6.98	3.96	0.465
6.98	3.97	0.462
6.99	3.98	0.458
6.99	3.99	0.455
6.99	4.00	0.452
6.99	4.01	0.449
6.99	4.02	0.446
6.99	4.03	0.444
7.00	4.04	0.441
7.00	4.05	0.437
7.00	4.06	0.434
7.00	4.07	0.432
7.00	4.08	0.430
7.00	4.09	0.427
7.00	4.10	0.425
7.01	4.11	0.424
7.01	4.12	0.421
7.01	4.13	0.419
7.01	4.13	0.417
7.01	4.14	0.414
7.01	4.15	0.411
7.02	4.16	0.408
7.02	4.17	0.405
7.02	4.18	0.402
7.02	4.19	0.400
7.02	4.20	0.398
7.03	4.21	0.395
7.03	4.22	0.394
7.03	4.23	0.392
7.03	4.24	0.391
7.03	4.25	0.388
7.03	4.26	0.385
7.04	4.27	0.383
7.04	4.28	0.380
7.04	4.29	0.378
7.04	4.30	0.376
7.04	4.30	0.375
7.04	4.31	0.372
7.05	4.32	0.371
7.05	4.33	0.370
7.05	4.34	0.368
7.05	4.35	0.367
7.05	4.36	0.365
7.05	4.37	0.363
7.05	4.38	0.361
7.06	4.39	0.359
7.06	4.40	0.357
7.06	4.41	0.354
7.06	4.41	0.352
7.06	4.42	0.351
7.06	4.43	0.349
7.07	4.44	0.347
7.07	4.45	0.347
7.07	4.46	0.345
7.07	4.47	0.344
7.07	4.48	0.343
7.08	4.49	0.342
7.08	4.50	0.340
7.08	4.51	0.339
7.08	4.51	0.337
7.08	4.52	0.336
7.08	4.53	0.335
7.09	4.54	0.333
7.09	4.55	0.331
7.09	4.56	0.330
7.09	4.57	0.328
7.09	4.58	0.328
7.09	4.59	0.327
7.10	4.60	0.325
7.10	4.60	0.325
7.10	4.61	0.324
7.10	4.62	0.322
7.10	4.63	0.322
7.10	4.64	0.320
7.10	4.65	0.320
7.11	4.66	0.318
7.11	4.67	0.316
7.11	4.68	0.315
7.11	4.68	0.314
7.11	4.69	0.313
7.11	4.70	0.311
7.12	4.71	0.309
7.12	4.72	0.308
7.12	4.73	0.307
7.12	4.74	0.306
7.12	4.75	0.305
7.13	4.76	0.304
7.13	4.76	0.303
7.13	4.77	0.302
7.13	4.78	0.301
7.13	4.79	0.301
7.13	4.80	0.301
7.14	4.81	0.300
7.14	4.82	0.298
7.14	4.83	0.297
7.14	4.83	0.296
7.14	4.84	0.295
7.14	4.85	0.294
7.15	4.86	0.292
7.15	4.87	0.291
7.15	4.88	0.290
7.15	4.89	0.290
7.15	4.90	0.290
7.15	4.91	0.289
7.15	4.91	0.289
7.16	4.92	0.288
7.16	4.93	0.288
7.16	4.94	0.287
7.16	4.95	0.287
7.16	4.96	0.286
7.16	4.96	0.284
7.17	4.97	0.282
7.17	4.98	0.281
7.17	4.99	0.280
7.17	5.00	0.279
7.17	5.01	0.278
7.18	5.02	0.277
7.18	5.03	0.277
7.18	5.04	0.277
7.18	5.04	0.277
7.18	5.05	0.277
7.18	5.06	0.277
7.19	5.07	0.276
7.19	5.08	0.275
7.19	5.09	0.274
7.19	5.10	0.273
7.19	5.10	0.272
7.19	5.11	0.271
7.20	5.12	0.269
7.20	5.13	0.269
7.20	5.14	0.268
7.20	5.15	0.268
7.20	5.16	0.268
7.20	5.16	0.268
7.20	5.17	0.267
7.21	5.18	0.267
7.21	5.19	0.266
7.21	5.20	0.265
7.21	5.21	0.264
7.21	5.22	0.264
7.21	5.22	0.264
7.22	5.23	0.264
7.22	5.24	0.264
7.22	5.25	0.264
7.22	5.26	0.264
7.22	5.27	0.263
7.23	5.28	0.263
7.23	5.28	0.262
7.23	5.29	0.261
7.23	5.30	0.260
7.23	5.31	0.259
7.23	5.32	0.258
7.24	5.33	0.258
7.24	5.34	0.257
7.24	5.34	0.257
7.24	5.35	0.256
7.24	5.36	0.256
7.24	5.37	0.256
7.25	5.38	0.256
7.25	5.39	0.256
7.25	5.39	0.256
7.25	5.40	0.255
7.25	5.41	0.255
7.25	5.42	0.254
7.25	5.43	0.254
7.26	5.44	0.253
7.26	5.45	0.252
7.26	5.46	0.252
7.26	5.46	0.252
7.26	5.47	0.252
7.26	5.48	0.252
7.27	5.49	0.252
7.27	5.50	0.252
7.27	5.51	0.251
7.27	5.51	0.251
7.27	5.52	0.251
7.28	5.53	0.251
7.28	5.54	0.250
7.28	5.55	0.250
7.28	5.56	0.249
7.28	5.57	0.249
7.28	5.57	0.249
7.29	5.58	0.249
7.29	5.59	0.248
7.29	5.60	0.248
7.29	5.61	0.248
7.29	5.62	0.248
7.29	5.63	0.247
7.30	5.63	0.247
7.30	5.64	0.246
7.30	5.65	0.246
7.30	5.66	0.246
7.30	5.67	0.245
7.30	5.68	0.245
7.30	5.68	0.245
7.31	5.69	0.245
7.31	5.70	0.245
7.31	5.71	0.245
7.31	5.72	0.245
7.31	5.73	0.244
7.31	5.74	0.244
7.32	5.74	0.244
7.32	5.75	0.244
7.32	5.76	0.243
7.32	5.77	0.243
7.32	5.78	0.243
7.33	5.79	0.243
7.33	5.79	0.243
7.33	5.80	0.243
7.33	5.81	0.243
7.33	5.82	0.243
7.33	5.83	0.243
7.34	5.84	0.242
7.34	5.85	0.242
7.34	5.85	0.242
7.34	5.86	0.242
7.34	5.87	0.242
7.34	5.88	0.242
7.35	5.89	0.242
7.35	5.90	0.242
7.35	5.90	0.242
7.35	5.91	0.242
7.35	5.92	0.241
7.35	5.93	0.241
7.35	5.94	0.241
7.36	5.95	0.241
7.36	5.96	0.241
7.36	5.96	0.241
7.36	5.97	0.241
7.36	5.98	0.241
7.36	5.99	0.241
7.37	6.00	0.240
7.37	6.00	0.240
7.37	6.01	0.240
7.37	6.02	0.240
7.37	6.03	0.239
7.38	6.04	0.239
7.38	6.05	0.239
7.38	6.06	0.239
7.38	6.07	0.239
7.38	6.07	0.239
7.38	6.08	0.239
7.39	6.09	0.239
7.39	6.10	0.239
7.39	6.11	0.239
7.39	6.12	0.238
7.39	6.12	0.238
7.39	6.13	0.238
7.40	6.14	0.238
7.40	6.15	0.238
7.40	6.16	0.238
7.40	6.16	0.237
7.40	6.17	0.237
7.40	6.18	0.237
7.40	6.19	0.237
7.41	6.20	0.237
7.41	6.21	0.237
7.41	6.21	0.237
7.41	6.22	0.237
7.41	6.23	0.237
7.41	6.24	0.237
7.42	6.25	0.237
7.42	6.26	0.236
7.42	6.27	0.236
7.42	6.27	0.236
7.42	6.28	0.236
7.43	6.29	0.236
7.43	6.30	0.236
7.43	6.31	0.236
7.43	6.32	0.236
7.43	6.32	0.236
7.43	6.33	0.236
7.44	6.34	0.236
7.44	6.35	0.236
7.44	6.36	0.236
7.44	6.37	0.235
7.44	6.37	0.235
7.44	6.38	0.235
7.45	6.39	0.235
7.45	6.40	0.235
7.45	6.41	0.235
7.45	6.42	0.235
7.45	6.42	0.235
7.45	6.43	0.234
7.45	6.44	0.234
7.46	6.45	0.234
7.46	6.46	0.234
7.46	6.47	0.234
7.46	6.47	0.234
7.46	6.48	0.234
7.46	6.49	0.234
7.47	6.50	0.234
7.47	6.51	0.234
7.47	6.52	0.234
7.47	6.53	0.234
7.47	6.53	0.234
7.48	6.54	0.234
7.48	6.55	0.233
7.48	6.56	0.233
7.48	6.57	0.233
7.48	6.58	0.233
7.48	6.58	0.233
7.49	6.59	0.233
7.49	6.60	0.233
7.49	6.61	0.233
7.49	6.62	0.233
7.49	6.63	0.233
7.49	6.63	0.233
7.50	6.64	0.233
7.50	6.65	0.232
7.50	6.66	0.232
7.50	6.67	0.232
7.50	6.68	0.232
7.50	6.69	0.232
7.50	6.69	0.232
7.51	6.70	0.232
7.51	6.71	0.232
7.51	6.72	0.232
7.51	6.73	0.232
7.51	6.73	0.232
7.51	6.74	0.232
7.52	6.75	0.232
7.52	6.76	0.232
7.52	6.77	0.232
7.52	6.78	0.232
7.52	6.79	0.232
7.53	6.79	0.232
7.53	6.80	0.231
7.53	6.81	0.231
7.53	6.82	0.231
7.53	6.83	0.231
7.53	6.84	0.231
7.54	6.84	0.231
7.54	6.85	0.231
7.54	6.86	0.231
7.54	6.87	0.231
7.54	6.88	0.231
7.54	6.88	0.231
7.55	6.89	0.231
7.55	6.90	0.231
7.55	6.91	0.231
7.55	6.92	0.231
7.55	6.93	0.231
7.55	6.94	0.231
7.55	6.95	0.231
7.56	6.95	0.231
7.56	6.96	0.231
7.56	6.97	0.231
7.56	6.98	0.231
7.56	6.99	0.231
7.56	6.99	0.230
7.57	7.00	0.230
7.57	7.01	0.230
7.57	7.02	0.230
7.57	7.03	0.230
7.57	7.04	0.230
7.58	7.04	0.230
7.58	7.05	0.230
7.58	7.06	0.230
7.58	7.07	0.230
7.58	7.08	0.230
7.58	7.09	0.230
7.59	7.09	0.230
7.59	7.10	0.230
7.59	7.11	0.230
7.59	7.12	0.230
7.59	7.13	0.230
7.59	7.14	0.230
7.60	7.15	0.230
7.60	7.15	0.230
7.60	7.16	0.230
7.60	7.17	0.230
7.60	7.18	0.230
7.60	7.19	0.230
7.60	7.19	0.230
7.61	7.20	0.230
7.61	7.21	0.230
7.61	7.22	0.229
7.61	7.23	0.229
7.61	7.24	0.229
7.61	7.25	0.229
7.62	7.25	0.229
7.62	7.26	0.229
7.62	7.27	0.229
7.62	7.28	0.229
7.62	7.29	0.229
7.63	7.30	0.229
7.63	7.30	0.229
7.63	7.31	0.229
7.63	7.32	0.229
7.63	7.33	0.229
7.63	7.34	0.229
7.64	7.34	0.229
7.64	7.35	0.229
7.64	7.36	0.229
7.64	7.37	0.229
7.64	7.38	0.229
7.64	7.39	0.229
7.65	7.39	0.229
7.65	7.40	0.229
7.65	7.41	0.229
7.65	7.42	0.229
7.65	7.43	0.229
7.65	7.44	0.229
7.65	7.45	0.228
7.66	7.45	0.228
7.66	7.46	0.228
7.66	7.47	0.228
7.66	7.48	0.228
7.66	7.49	0.228
7.66	7.50	0.228
7.67	7.50	0.228
7.67	7.51	0.228
7.67	7.52	0.228
7.67	7.53	0.228
7.67	7.54	0.228
7.68	7.55	0.228
7.68	7.55	0.228
7.68	7.56	0.228
7.68	7.57	0.228
7.68	7.58	0.228
7.68	7.59	0.228
7.69	7.60	0.228
7.69	7.60	0.228
7.69	7.61	0.228
7.69	7.62	0.228
7.69	7.63	0.228
7.69	7.64	0.228
7.70	7.65	0.228
7.70	7.65	0.228
7.70	7.66	0.227
7.70	7.67	0.227
7.70	7.68	0.227
7.70	7.69	0.227
7.70	7.70	0.227
7.71	7.70	0.227
7.71	7.71	0.227
7.71	7.72	0.227
7.71	7.73	0.227
7.71	7.74	0.227
7.71	7.75	0.227
7.72	7.75	0.227
7.72	7.76	0.227
7.72	7.77	0.227
7.72	7.78	0.227
7.72	7.79	0.227
7.73	7.80	0.227
7.73	7.80	0.227
7.73	7.81	0.227
7.73	7.82	0.227
7.73	7.83	0.227
7.73	7.84	0.227
7.74	7.85	0.227
7.74	7.85	0.227
7.74	7.86	0.227
7.74	7.87	0.227
7.74	7.88	0.227
7.74	7.89	0.227
7.75	7.90	0.227
7.75	7.90	0.227
7.75	7.91	0.227
7.75	7.92	0.227
7.75	7.93	0.227
7.75	7.94	0.227
7.75	7.95	0.227
7.76	7.95	0.226
7.76	7.96	0.226
7.76	7.97	0.226
7.76	7.98	0.226
7.76	7.99	0.226
7.76	8.00	0.226
7.77	8.00	0.226
7.77	8.01	0.226
7.77	8.02	0.226
7.77	8.03	0.226
7.77	8.04	0.226
7.78	8.05	0.226
7.78	8.05	0.226
7.78	8.06	0.226
7.78	8.07	0.226
7.78	8.08	0.226
7.78	8.09	0.226
7.79	8.10	0.226
7.79	8.11	0.226
7.79	8.11	0.226
7.79	8.12	0.226
7.79	8.13	0.226
7.79	8.14	0.226
7.80	8.15	0.226
7.80	8.15	0.226
7.80	8.16	0.226
7.80	8.17	0.226
7.80	8.18	0.226
7.80	8.19	0.226
7.80	8.20	0.226
7.81	8.20	0.226
7.81	8.21	0.226
7.81	8.22	0.226
7.81	8.23	0.226
7.81	8.24	0.226
7.81	8.25	0.226
7.82	8.25	0.226
7.82	8.26	0.226
7.82	8.27	0.226
7.82	8.28	0.226
7.82	8.29	0.226
7.83	8.30	0.226
7.83	8.30	0.226
7.83	8.31	0.226
7.83	8.32	0.225
7.83	8.33	0.225
7.83	8.34	0.225
7.84	8.35	0.225
7.84	8.35	0.225
7.84	8.36	0.225
7.84	8.37	0.225
7.84	8.38	0.225
7.84	8.39	0.225
7.85	8.40	0.225
7.85	8.40	0.225
7.85	8.41	0.225
7.85	8.42	0.225
7.85	8.43	0.225
7.85	8.44	0.225
7.85	8.45	0.225
7.86	8.45	0.225
7.86	8.46	0.225
7.86	8.47	0.225
7.86	8.48	0.225
7.86	8.49	0.225
7.86	8.50	0.225
7.87	8.50	0.225
7.87	8.51	0.225
7.87	8.52	0.225
7.87	8.53	0.225
7.87	8.54	0.225
7.88	8.55	0.225
7.88	8.55	0.225
7.88	8.56	0.225
7.88	8.57	0.225
7.88	8.58	0.225
7.88	8.59	0.225
7.89	8.60	0.225
7.89	8.60	0.225
7.89	8.61	0.225
7.89	8.62	0.225
7.89	8.63	0.225
7.89	8.64	0.225
7.90	8.65	0.225
7.90	8.66	0.225
7.90	8.66	0.225
7.90	8.67	0.225
7.90	8.68	0.224
7.90	8.69	0.224
7.90	8.70	0.224
7.91	8.70	0.224
7.91	8.71	0.224
7.91	8.72	0.224
7.91	8.73	0.224
7.91	8.74	0.224
7.91	8.75	0.224
7.92	8.75	0.224
7.92	8.76	0.224
7.92	8.77	0.224
7.92	8.78	0.224
7.92	8.79	0.224
7.93	8.80	0.224
7.93	8.80	0.224
7.93	8.81	0.224
7.93	8.82	0.224
7.93	8.83	0.224
7.93	8.84	0.224
7.94	8.85	0.224
7.94	8.85	0.224
7.94	8.86	0.224
7.94	8.87	0.224
7.94	8.88	0.224
7.94	8.89	0.224
7.95	8.90	0.224
7.95	8.91	0.224
7.95	8.91	0.224
7.95	8.92	0.224
7.95	8.93	0.224
7.95	8.94	0.224
7.95	8.95	0.224
7.96	8.95	0.224
7.96	8.96	0.224
7.96	8.97	0.224
7.96	8.98	0.224
7.96	8.99	0.224
7.96	9.00	0.224
7.97	9.01	0.224
7.97	9.01	0.224
7.97	9.02	0.224
7.97	9.03	0.224
7.97	9.04	0.224
7.98	9.05	0.224
7.98	9.06	0.224
7.98	9.06	0.224
7.98	9.07	0.224
7.98	9.08	0.224
7.98	9.09	0.224
7.99	9.10	0.224
7.99	9.11	0.224
7.99	9.11	0.224
7.99	9.12	0.224
7.99	9.13	0.224
7.99	9.14	0.224
8.00	9.15	0.224
8.00	9.16	0.224
8.00	9.16	0.224
8.00	9.17	0.224
8.00	9.18	0.224
8.00	9.19	0.224
8.00	9.20	0.224
8.01	9.21	0.224
8.01	9.21	0.224
8.01	9.22	0.224
8.01	9.23	0.224
8.01	9.24	0.224
8.01	9.25	0.224
8.02	9.25	0.224
8.02	9.26	0.224
8.02	9.27	0.224
8.02	9.28	0.224
8.02	9.29	0.224
8.03	9.30	0.224
8.03	9.31	0.224
8.03	9.31	0.224
8.03	9.32	0.224
8.03	9.33	0.224
8.03	9.34	0.224
8.04	9.35	0.224
8.04	9.36	0.224
8.04	9.36	0.224
8.04	9.37	0.224
8.04	9.38	0.224
8.04	9.39	0.224
8.05	9.40	0.224
8.05	9.41	0.224
8.05	9.41	0.224
8.05	9.42	0.224
8.05	9.43	0.224
8.05	9.44	0.224
8.05	9.45	0.224
8.06	9.45	0.223
8.06	9.46	0.223
8.06	9.47	0.223
8.06	9.48	0.223
8.06	9.49	0.223
8.06	9.50	0.223
8.07	9.51	0.223
8.07	9.51	0.223
8.07	9.52	0.223
8.07	9.53	0.223
8.07	9.54	0.223
8.08	9.55	0.223
8.08	9.56	0.223
8.08	9.56	0.223
8.08	9.57	0.223
8.08	9.58	0.223
8.08	9.59	0.223
8.09	9.60	0.223
8.09	9.61	0.224
8.09	9.61	0.224
8.09	9.62	0.224
8.09	9.63	0.224
8.09	9.64	0.223
8.10	9.65	0.223
8.10	9.66	0.223
8.10	9.66	0.223
8.10	9.67	0.223
8.10	9.68	0.223
8.10	9.69	0.223
8.10	9.70	0.223
8.11	9.71	0.223
8.11	9.71	0.223
8.11	9.72	0.223
8.11	9.73	0.223
8.11	9.74	0.223
8.11	9.75	0.223
8.12	9.76	0.223
8.12	9.76	0.223
8.12	9.77	0.223
8.12	9.78	0.223
8.12	9.79	0.223
8.13	9.80	0.223
8.13	9.81	0.223
8.13	9.82	0.223
8.13	9.82	0.223
8.13	9.83	0.223
8.13	9.84	0.223
8.14	9.85	0.223
8.14	9.86	0.223
8.14	9.86	0.223
8.14	9.87	0.223
8.14	9.88	0.223
8.14	9.89	0.223
8.15	9.90	0.223
8.15	9.91	0.223
8.15	9.91	0.223
8.15	9.92	0.223
8.15	9.93	0.223
8.15	9.94	0.223
8.15	9.95	0.223
8.16	9.96	0.223
8.16	9.97	0.223
8.16	9.97	0.223
8.16	9.98	0.223
8.16	9.99	0.223
8.16	10.00	0.223
8.17	10.01	0.223
8.17	10.02	0.223
8.17	10.02	0.223
8.17	10.03	0.223
8.17	10.04	0.223
8.18	10.05	0.223
8.18	10.06	0.223
8.18	10.06	0.223
8.18	10.07	0.223
8.18	10.08	0.223
8.18	10.09	0.223
8.19	10.10	0.223
8.19	10.11	0.223
8.19	10.12	0.223
8.19	10.12	0.223
8.19	10.13	0.223
8.19	10.14	0.223
8.20	10.15	0.223
8.20	10.16	0.223
8.20	10.16	0.223
8.20	10.17	0.223
8.20	10.18	0.223
8.20	10.19	0.223
8.20	10.20	0.223
8.21	10.21	0.223
8.21	10.22	0.223
8.21	10.22	0.223
8.21	10.23	0.223
8.21	10.24	0.223
8.21	10.25	0.223
8.22	10.26	0.223
8.22	10.27	0.223
8.22	10.27	0.223
8.22	10.28	0.223
8.22	10.29	0.223
8.23	10.30	0.223
8.23	10.31	0.223
8.23	10.31	0.223
8.23	10.32	0.223
8.23	10.33	0.223
8.23	10.34	0.223
8.24	10.35	0.223
8.24	10.36	0.223
8.24	10.37	0.223
8.24	10.37	0.223
8.24	10.38	0.223
8.24	10.39	0.223
8.25	10.40	0.223
8.25	10.41	0.223
8.25	10.42	0.223
8.25	10.42	0.223
8.25	10.43	0.223
8.25	10.44	0.223
8.25	10.45	0.223
8.26	10.46	0.223
8.26	10.46	0.223
8.26	10.47	0.223
8.26	10.48	0.223
8.26	10.49	0.223
8.26	10.50	0.223
8.27	10.51	0.223
8.27	10.51	0.223
8.27	10.52	0.223
8.27	10.53	0.223
8.27	10.54	0.223
8.28	10.55	0.223
8.28	10.56	0.223
8.28	10.57	0.223
8.28	10.57	0.223
8.28	10.58	0.223
8.28	10.59	0.223
8.29	10.60	0.223
8.29	10.61	0.223
8.29	10.62	0.223
8.29	10.62	0.223
8.29	10.63	0.223
8.29	10.64	0.223
8.30	10.65	0.223
8.30	10.66	0.223
8.30	10.67	0.223
8.30	10.67	0.223
8.30	10.68	0.223
8.30	10.69	0.223
8.30	10.70	0.223
8.31	10.71	0.223
8.31	10.71	0.223
8.31	10.72	0.223
8.31	10.73	0.223
8.31	10.74	0.223
8.31	10.75	0.223
8.32	10.76	0.223
8.32	10.76	0.223
8.32	10.77	0.223
8.32	10.78	0.223
8.32	10.79	0.223
8.33	10.80	0.223
8.33	10.81	0.223
8.33	10.82	0.223
8.33	10.82	0.223
8.33	10.83	0.223
8.33	10.84	0.223
8.34	10.85	0.223
8.34	10.86	0.223
8.34	10.87	0.223
8.34	10.87	0.223
8.34	10.88	0.223
8.34	10.89	0.223
8.35	10.90	0.223
8.35	10.91	0.223
8.35	10.91	0.223
8.35	10.92	0.223
8.35	10.93	0.223
8.35	10.94	0.223
8.35	10.95	0.223
8.36	10.96	0.223
8.36	10.97	0.223
8.36	10.97	0.223
8.36	10.98	0.223
8.36	10.99	0.223
8.36	11.00	0.223
8.37	11.01	0.223
8.37	11.02	0.223
8.37	11.02	0.223
8.37	11.03	0.223
8.37	11.04	0.223
8.38	11.05	0.223
8.38	11.06	0.223
8.38	11.07	0.223
8.38	11.08	0.223
8.38	11.08	0.223
8.38	11.09	0.223
8.39	11.10	0.223
8.39	11.11	0.223
8.39	11.12	0.223
8.39	11.12	0.223
8.39	11.13	0.223
8.39	11.14	0.223
8.40	11.15	0.223
8.40	11.16	0.223
8.40	11.17	0.223
8.40	11.17	0.223
8.40	11.18	0.223
8.40	11.19	0.223
8.40	11.20	0.223
8.41	11.21	0.223
8.41	11.22	0.223
8.41	11.22	0.223
8.41	11.23	0.223
8.41	11.24	0.223
8.41	11.25	0.223
8.42	11.26	0.223
8.42	11.27	0.223
8.42	11.27	0.223
8.42	11.28	0.223
8.42	11.29	0.223
8.43	11.30	0.223
8.43	11.31	0.223
8.43	11.32	0.223
8.43	11.32	0.223
8.43	11.33	0.223
8.43	11.34	0.223
8.44	11.35	0.223
8.44	11.36	0.223
8.44	11.37	0.223
8.44	11.37	0.223
8.44	11.38	0.223
8.44	11.39	0.223
8.45	11.40	0.223
8.45	11.41	0.223
8.45	11.42	0.223
8.45	11.42	0.223
8.45	11.43	0.223
8.45	11.44	0.223
8.45	11.45	0.223
8.46	11.46	0.223
8.46	11.47	0.223
8.46	11.47	0.223
8.46	11.48	0.223
8.46	11.49	0.223
8.46	11.50	0.223
8.47	11.51	0.223
8.47	11.52	0.223
8.47	11.52	0.223
8.47	11.53	0.223
8.47	11.54	0.223
8.48	11.55	0.223
8.48	11.56	0.223
8.48	11.57	0.223
8.48	11.57	0.223
8.48	11.58	0.223
8.48	11.59	0.223
8.49	11.60	0.223
8.49	11.61	0.223
8.49	11.62	0.223
8.49	11.62	0.223
8.49	11.63	0.223
8.49	11.64	0.223
8.50	11.65	0.223
8.50	11.66	0.223
8.50	11.67	0.223
8.50	11.67	0.223
8.50	11.68	0.223
8.50	11.69	0.223
8.50	11.70	0.223
8.51	11.71	0.223
8.51	11.72	0.223
8.51	11.72	0.223
8.51	11.73	0.223
8.51	11.74	0.223
8.51	11.75	0.223
8.52	11.76	0.223
8.52	11.77	0.223
8.52	11.77	0.223
8.52	11.78	0.223
8.52	11.79	0.223
8.53	11.80	0.223
8.53	11.81	0.223
8.53	11.82	0.223
8.53	11.83	0.223
8.53	11.83	0.223
8.53	11.84	0.223
8.53	11.85	0.223
8.54	11.86	0.223
8.54	11.87	0.223
8.54	11.88	0.223
8.54	11.88	0.223
8.54	11.89	0.223
8.55	11.90	0.223
8.55	11.91	0.223
8.55	11.92	0.223
8.55	11.92	0.223
8.55	11.93	0.223
8.55	11.94	0.223
8.55	11.95	0.223
8.56	11.96	0.223
8.56	11.97	0.223
8.56	11.97	0.223
8.56	11.98	0.223
8.56	11.99	0.223
8.57	12.00	0.223
8.57	12.01	0.223
8.57	12.01	0.223
8.57	12.02	0.223
8.57	12.03	0.223
8.57	12.04	0.223
8.58	12.05	0.223
8.58	12.06	0.223
8.58	12.07	0.223
8.58	12.07	0.223
8.58	12.08	0.223
8.58	12.09	0.223
8.58	12.10	0.223
8.59	12.11	0.223
8.59	12.12	0.223
8.59	12.12	0.223
8.59	12.13	0.223
8.59	12.14	0.223
8.60	12.15	0.223
8.60	12.16	0.223
8.60	12.17	0.223
8.60	12.17	0.223
8.60	12.18	0.223
8.60	12.19	0.223
8.60	12.20	0.223
8.61	12.21	0.223
8.61	12.22	0.223
8.61	12.22	0.223
8.61	12.23	0.223
8.61	12.24	0.223
8.62	12.25	0.223
8.62	12.26	0.223
8.62	12.27	0.223
8.62	12.27	0.223
8.62	12.28	0.223
8.62	12.29	0.223
8.63	12.30	0.223
8.63	12.31	0.223
8.63	12.32	0.223
8.63	12.33	0.223
8.63	12.33	0.223
8.63	12.34	0.223
8.63	12.35	0.223
8.64	12.36	0.223
8.64	12.37	0.223
8.64	12.37	0.223
8.64	12.38	0.223
8.64	12.39	0.223
8.65	12.40	0.223
8.65	12.41	0.223
8.65	12.42	0.223
8.65	12.42	0.223
8.65	12.43	0.223
8.65	12.44	0.223
8.65	12.45	0.223
8.66	12.46	0.223
8.66	12.47	0.223
8.66	12.47	0.223
8.66	12.48	0.223
8.66	12.49	0.223
8.67	12.50	0.223
8.67	12.51	0.223
8.67	12.52	0.223
8.67	12.52	0.223
8.67	12.53	0.223
8.67	12.54	0.223
8.68	12.55	0.223
8.68	12.56	0.223
8.68	12.57	0.223
8.68	12.58	0.223
8.68	12.58	0.223
8.68	12.59	0.223
8.68	12.60	0.223
8.69	12.61	0.223
8.69	12.62	0.223
8.69	12.63	0.223
8.69	12.63	0.223
8.69	12.64	0.223
8.70	12.65	0.223
8.70	12.66	0.223
8.70	12.67	0.223
8.70	12.67	0.223
8.70	12.68	0.223
8.70	12.69	0.223
8.70	12.70	0.223
8.71	12.71	0.223
8.71	12.72	0.223
8.71	12.72	0.224
8.71	12.73	0.224
8.71	12.74	0.224
8.72	12.75	0.224
8.72	12.76	0.224
8.72	12.77	0.224
8.72	12.78	0.224
8.72	12.78	0.224
8.72	12.79	0.224
8.73	12.80	0.224
8.73	12.81	0.224
8.73	12.82	0.224
8.73	12.82	0.224
8.73	12.83	0.224
8.73	12.84	0.224
8.73	12.85	0.224
8.74	12.86	0.224
8.74	12.87	0.224
8.74	12.87	0.224
8.74	12.88	0.224
8.74	12.89	0.224
8.75	12.90	0.224
8.75	12.91	0.224
8.75	12.92	0.224
8.75	12.92	0.224
8.75	12.93	0.224
8.75	12.94	0.224
8.75	12.95	0.224
8.76	12.96	0.224
8.76	12.97	0.224
8.76	12.97	0.224
8.76	12.98	0.224
8.76	12.99	0.224
8.77	13.00	0.224
8.77	13.01	0.224
8.77	13.02	0.224
8.77	13.02	0.224
8.77	13.03	0.224
8.77	13.04	0.224
8.78	13.05	0.224
8.78	13.06	0.224
8.78	13.06	0.224
8.78	13.07	0.224
8.78	13.08	0.224
8.78	13.09	0.224
8.78	13.10	0.224
8.79	13.11	0.224
8.79	13.12	0.224
8.79	13.12	0.224
8.79	13.13	0.224
8.79	13.14	0.224
8.80	13.15	0.224
8.80	13.16	0.224
8.80	13.17	0.224
8.80	13.17	0.224
8.80	13.18	0.224
8.80	13.19	0.224
8.80	13.20	0.224
8.81	13.21	0.224
8.81	13.22	0.224
8.81	13.22	0.224
8.81	13.23	0.224
8.81	13.24	0.224
8.82	13.25	0.224
8.82	13.26	0.224
8.82	13.27	0.224
8.82	13.27	0.224
8.82	13.28	0.224
8.82	13.29	0.224
8.83	13.30	0.224
8.83	13.31	0.224
8.83	13.32	0.224
8.83	13.32	0.224
8.83	13.33	0.224
8.83	13.34	0.224
8.83	13.35	0.224
8.84	13.36	0.224
8.84	13.37	0.224
8.84	13.37	0.224
8.84	13.38	0.224
8.84	13.39	0.224
8.85	13.40	0.224
8.85	13.41	0.224
8.85	13.42	0.224
8.85	13.42	0.224
8.85	13.43	0.224
8.85	13.44	0.224
8.85	13.45	0.224
8.86	13.46	0.224
8.86	13.47	0.224
8.86	13.47	0.224
8.86	13.48	0.224
8.86	13.49	0.224
8.87	13.50	0.224
8.87	13.51	0.224
8.87	13.52	0.224
8.87	13.52	0.224
8.87	13.53	0.224
8.87	13.54	0.224
8.88	13.55	0.224
8.88	13.56	0.224
8.88	13.57	0.224
8.88	13.57	0.224
8.88	13.58	0.224
8.88	13.59	0.224
8.88	13.60	0.224
8.89	13.61	0.224
8.89	13.62	0.224
8.89	13.62	0.224
8.89	13.63	0.224
8.89	13.64	0.224
8.90	13.65	0.224
8.90	13.66	0.224
8.90	13.67	0.224
8.90	13.67	0.224
8.90	13.68	0.224
8.90	13.69	0.224
8.90	13.70	0.224
8.91	13.71	0.224
8.91	13.72	0.224
8.91	13.72	0.224
8.91	13.73	0.224
8.91	13.74	0.224
8.92	13.75	0.224
8.92	13.76	0.223
8.92	13.77	0.223
8.92	13.77	0.223
8.92	13.78	0.223
8.92	13.79	0.223
8.93	13.80	0.223
8.93	13.81	0.223
8.93	13.82	0.223
8.93	13.83	0.223
8.93	13.83	0.223
8.93	13.84	0.223
8.93	13.85	0.223
8.94	13.86	0.223
8.94	13.87	0.223
8.94	13.87	0.223
8.94	13.88	0.223
8.94	13.89	0.223
8.95	13.90	0.223
8.95	13.91	0.223
8.95	13.92	0.223
8.95	13.93	0.223
8.95	13.93	0.223
8.95	13.94	0.223
8.95	13.95	0.223
8.96	13.96	0.223
8.96	13.97	0.223
8.96	13.98	0.223
8.96	13.98	0.223
8.96	13.99	0.223
8.97	14.00	0.223
8.97	14.01	0.223
8.97	14.02	0.223
8.97	14.03	0.223
8.97	14.03	0.223
8.97	14.04	0.223
8.98	14.05	0.223
8.98	14.06	0.223
8.98	14.07	0.223
8.98	14.08	0.223
8.98	14.08	0.223
8.98	14.09	0.223
8.98	14.10	0.223
8.99	14.11	0.223
8.99	14.12	0.223
8.99	14.13	0.224
8.99	14.13	0.224
8.99	14.14	0.224
9.00	14.15	0.224
9.00	14.16	0.224
9.00	14.17	0.224
9.00	14.18	0.224
9.00	14.19	0.224
9.00	14.19	0.224
9.00	14.20	0.224
9.01	14.21	0.224
9.01	14.22	0.224
9.01	14.23	0.224
9.01	14.23	0.224
9.01	14.24	0.224
9.02	14.25	0.224
9.02	14.26	0.224
9.02	14.27	0.224
9.02	14.28	0.224
9.02	14.28	0.224
9.02	14.29	0.224
9.03	14.30	0.224
9.03	14.31	0.224
9.03	14.32	0.224
9.03	14.33	0.224
9.03	14.33	0.224
9.03	14.34	0.224
9.03	14.35	0.224
9.04	14.36	0.224
9.04	14.37	0.224
9.04	14.38	0.224
9.04	14.39	0.224
9.04	14.39	0.224
9.05	14.40	0.224
9.05	14.41	0.224
9.05	14.42	0.224
9.05	14.43	0.224
9.05	14.43	0.224
9.05	14.44	0.224
9.05	14.45	0.224
9.06	14.46	0.224
9.06	14.47	0.224
9.06	14.48	0.224
9.06	14.48	0.224
9.06	14.49	0.224
9.07	14.50	0.224
9.07	14.51	0.224
9.07	14.52	0.224
9.07	14.53	0.224
9.07	14.53	0.224
9.07	14.54	0.224
9.08	14.55	0.224
9.08	14.56	0.224
9.08	14.57	0.224
9.08	14.58	0.224
9.08	14.59	0.224
9.08	14.59	0.224
9.08	14.60	0.224
9.09	14.61	0.224
9.09	14.62	0.224
9.09	14.63	0.224
9.09	14.64	0.224
9.09	14.64	0.224
9.10	14.65	0.224
9.10	14.66	0.224
9.10	14.67	0.224
9.10	14.68	0.224
9.10	14.68	0.224
9.10	14.69	0.224
9.10	14.70	0.224
9.11	14.71	0.224
9.11	14.72	0.224
9.11	14.73	0.224
9.11	14.74	0.224
9.11	14.74	0.224
9.12	14.75	0.224
9.12	14.76	0.224
9.12	14.77	0.224
9.12	14.78	0.224
9.12	14.79	0.224
9.12	14.79	0.224
9.13	14.80	0.224
9.13	14.81	0.224
9.13	14.82	0.224
9.13	14.83	0.224
9.13	14.83	0.224
9.13	14.84	0.224
9.13	14.85	0.224
9.14	14.86	0.224
9.14	14.87	0.224
9.14	14.88	0.224
9.14	14.88	0.224
9.14	14.89	0.224
9.15	14.90	0.224
9.15	14.91	0.224
9.15	14.92	0.224
9.15	14.93	0.224
9.15	14.93	0.224
9.15	14.94	0.224
9.15	14.95	0.224
9.16	14.96	0.224
9.16	14.97	0.224
9.16	14.98	0.224
9.16	14.98	0.224
9.16	14.99	0.224
9.17	15.00	0.224
9.17	15.01	0.224
9.17	15.02	0.224
9.17	15.03	0.224
9.17	15.04	0.224
9.17	15.04	0.224
9.18	15.05	0.224
9.18	15.06	0.224
9.18	15.07	0.224
9.18	15.08	0.224
9.18	15.08	0.224
9.18	15.09	0.224
9.18	15.10	0.224
9.19	15.11	0.224
9.19	15.12	0.224
9.19	15.13	0.224
9.19	15.14	0.224
9.19	15.14	0.224
9.20	15.15	0.224
9.20	15.16	0.224
9.20	15.17	0.224
9.20	15.18	0.224
9.20	15.18	0.224
9.20	15.19	0.224
9.20	15.20	0.224
9.21	15.21	0.224
9.21	15.22	0.224
9.21	15.23	0.224
9.21	15.23	0.224
9.21	15.24	0.224
9.22	15.25	0.224
9.22	15.26	0.224
9.22	15.27	0.224
9.22	15.28	0.224
9.22	15.28	0.224
9.22	15.29	0.224
9.23	15.30	0.224
9.23	15.31	0.224
9.23	15.32	0.224
9.23	15.33	0.224
9.23	15.33	0.224
9.23	15.34	0.224
9.23	15.35	0.224
9.24	15.36	0.224
9.24	15.37	0.224
9.24	15.38	0.224
9.24	15.38	0.224
9.24	15.39	0.224
9.25	15.40	0.224
9.25	15.41	0.224
9.25	15.42	0.224
9.25	15.43	0.224
9.25	15.43	0.224
9.25	15.44	0.224
9.25	15.45	0.224
9.26	15.46	0.224
9.26	15.47	0.224
9.26	15.48	0.224
9.26	15.48	0.224
9.26	15.49	0.224
9.27	15.50	0.224
9.27	15.51	0.225
9.27	15.52	0.225
9.27	15.53	0.225
9.27	15.53	0.224
9.27	15.54	0.224
9.28	15.55	0.224
9.28	15.56	0.224
9.28	15.57	0.224
9.28	15.58	0.224
9.28	15.58	0.224
9.28	15.59	0.224
9.28	15.60	0.224
9.29	15.61	0.225
9.29	15.62	0.225
9.29	15.63	0.225
9.29	15.63	0.225
9.29	15.64	0.225
9.30	15.65	0.225
9.30	15.66	0.225
9.30	15.67	0.225
9.30	15.68	0.225
9.30	15.69	0.225
9.30	15.69	0.225
9.30	15.70	0.225
9.31	15.71	0.225
9.31	15.72	0.225
9.31	15.73	0.225
9.31	15.74	0.225
9.31	15.74	0.225
9.32	15.75	0.225
9.32	15.76	0.225
9.32	15.77	0.225
9.32	15.78	0.225
9.32	15.79	0.225
9.32	15.79	0.225
9.33	15.80	0.225
9.33	15.81	0.225
9.33	15.82	0.225
9.33	15.83	0.225
9.33	15.84	0.225
9.33	15.84	0.225
9.33	15.85	0.225
9.34	15.86	0.225
9.34	15.87	0.225
9.34	15.88	0.225
9.34	15.89	0.225
9.34	15.89	0.225
9.35	15.90	0.225
9.35	15.91	0.225
9.35	15.92	0.225
9.35	15.93	0.225
9.35	15.93	0.225
9.35	15.94	0.225
9.35	15.95	0.225
9.36	15.96	0.225
9.36	15.97	0.225
9.36	15.98	0.225
9.36	15.99	0.225
9.36	15.99	0.225
9.37	16.00	0.225
9.37	16.01	0.225
9.37	16.02	0.225
9.37	16.03	0.225
9.37	16.04	0.225
9.37	16.04	0.225
9.38	16.05	0.225
9.38	16.06	0.225
9.38	16.07	0.225
9.38	16.08	0.225
9.38	16.08	0.225
9.38	16.09	0.225
9.38	16.10	0.225
9.39	16.11	0.225
9.39	16.12	0.225
9.39	16.13	0.225
9.39	16.14	0.225
9.39	16.14	0.225
9.40	16.15	0.225
9.40	16.16	0.225
9.40	16.17	0.225
9.40	16.18	0.225
9.40	16.19	0.225
9.40	16.19	0.225
9.40	16.20	0.225
9.41	16.21	0.225
9.41	16.22	0.225
9.41	16.23	0.225
9.41	16.24	0.225
9.41	16.24	0.225
9.42	16.25	0.225
9.42	16.26	0.225
9.42	16.27	0.225
9.42	16.28	0.225
9.42	16.29	0.225
9.42	16.29	0.225
9.43	16.30	0.225
9.43	16.31	0.225
9.43	16.32	0.225
9.43	16.33	0.225
9.43	16.34	0.225
9.43	16.34	0.225
9.43	16.35	0.225
9.44	16.36	0.225
9.44	16.37	0.225
9.44	16.38	0.225
9.44	16.39	0.225
9.44	16.39	0.225
9.45	16.40	0.225
9.45	16.41	0.225
9.45	16.42	0.225
9.45	16.43	0.225
9.45	16.44	0.225
9.45	16.44	0.225
9.45	16.45	0.225
9.46	16.46	0.225
9.46	16.47	0.225
9.46	16.48	0.225
9.46	16.49	0.225
9.46	16.49	0.225
9.47	16.50	0.225
9.47	16.51	0.225
9.47	16.52	0.225
9.47	16.53	0.225
9.47	16.53	0.225
9.47	16.54	0.225
9.48	16.55	0.225
9.48	16.56	0.225
9.48	16.57	0.225
9.48	16.58	0.225
9.48	16.58	0.225
9.48	16.59	0.225
9.48	16.60	0.225
9.49	16.61	0.225
9.49	16.62	0.225
9.49	16.63	0.225
9.49	16.64	0.225
9.49	16.64	0.225
9.50	16.65	0.225
9.50	16.66	0.225
9.50	16.67	0.225
9.50	16.68	0.225
9.50	16.69	0.225
9.50	16.69	0.225
9.50	16.70	0.225
9.51	16.71	0.225
9.51	16.72	0.225
9.51	16.73	0.225
9.51	16.74	0.225
9.51	16.74	0.225
9.52	16.75	0.225
9.52	16.76	0.225
9.52	16.77	0.225
9.52	16.78	0.225
9.52	16.79	0.225
9.52	16.79	0.225
9.53	16.80	0.225
9.53	16.81	0.225
9.53	16.82	0.225
9.53	16.83	0.225
9.53	16.84	0.225
9.53	16.84	0.225
9.53	16.85	0.225
9.54	16.86	0.225
9.54	16.87	0.225
9.54	16.88	0.225
9.54	16.89	0.225
9.54	16.89	0.225
9.55	16.90	0.225
9.55	16.91	0.225
9.55	16.92	0.225
9.55	16.93	0.225
9.55	16.94	0.225
9.55	16.94	0.225
9.55	16.95	0.225
9.56	16.96	0.225
9.56	16.97	0.225
9.56	16.98	0.225
9.56	16.98	0.225
9.56	16.99	0.225
9.57	17.00	0.225
9.57	17.01	0.225
9.57	17.02	0.225
9.57	17.03	0.225
9.57	17.04	0.225
9.57	17.04	0.225
9.58	17.05	0.225
9.58	17.06	0.225
9.58	17.07	0.225
9.58	17.08	0.225
9.58	17.09	0.225
9.58	17.09	0.225
9.58	17.10	0.225
9.59	17.11	0.225
9.59	17.12	0.225
9.59	17.13	0.225
9.59	17.14	0.225
9.59	17.14	0.225
9.60	17.15	0.225
9.60	17.16	0.225
9.60	17.17	0.225
9.60	17.18	0.225
9.60	17.19	0.225
9.60	17.19	0.225
9.60	17.20	0.225
9.61	17.21	0.225
9.61	17.22	0.225
9.61	17.23	0.225
9.61	17.24	0.225
9.61	17.24	0.225
9.62	17.25	0.225
9.62	17.26	0.225
9.62	17.27	0.225
9.62	17.28	0.225
9.62	17.29	0.225
9.62	17.29	0.225
9.63	17.30	0.225
9.63	17.31	0.225
9.63	17.32	0.225
9.63	17.33	0.225
9.63	17.34	0.225
9.63	17.34	0.225
9.63	17.35	0.225
9.64	17.36	0.225
9.64	17.37	0.225
9.64	17.38	0.225
9.64	17.39	0.225
9.64	17.39	0.225
9.65	17.40	0.225
9.65	17.41	0.225
9.65	17.42	0.225
9.65	17.43	0.225
9.65	17.44	0.225
9.65	17.44	0.225
9.65	17.45	0.225
9.66	17.46	0.225
9.66	17.47	0.225
9.66	17.48	0.225
9.66	17.49	0.225
9.66	17.50	0.225
9.67	17.50	0.225
9.67	17.51	0.225
9.67	17.52	0.225
9.67	17.53	0.225
9.67	17.54	0.225
9.67	17.54	0.225
9.68	17.55	0.225
9.68	17.56	0.225
9.68	17.57	0.225
9.68	17.58	0.225
9.68	17.59	0.225
9.68	17.59	0.225
9.68	17.60	0.225
9.69	17.61	0.225
9.69	17.62	0.225
9.69	17.63	0.225
9.69	17.64	0.225
9.69	17.64	0.225
9.70	17.65	0.225
9.70	17.66	0.225
9.70	17.67	0.225
9.70	17.68	0.225
9.70	17.69	0.225
9.70	17.69	0.225
9.70	17.70	0.225
9.71	17.71	0.225
9.71	17.72	0.225
9.71	17.73	0.225
9.71	17.74	0.225
9.71	17.75	0.225
9.72	17.75	0.225
9.72	17.76	0.225
9.72	17.77	0.225
9.72	17.78	0.225
9.72	17.79	0.225
9.72	17.79	0.225
9.73	17.80	0.225
9.73	17.81	0.225
9.73	17.82	0.225
9.73	17.83	0.225
9.73	17.84	0.225
9.73	17.85	0.225
9.73	17.85	0.225
9.74	17.86	0.225
9.74	17.87	0.225
9.74	17.88	0.225
9.74	17.89	0.225
9.74	17.90	0.225
9.75	17.90	0.225
9.75	17.91	0.225
9.75	17.92	0.225
9.75	17.93	0.225
9.75	17.94	0.225
9.75	17.95	0.225
9.75	17.95	0.225
9.76	17.96	0.225
9.76	17.97	0.225
9.76	17.98	0.225
9.76	17.99	0.225
9.76	17.99	0.225
9.77	18.00	0.225
9.77	18.01	0.225
9.77	18.02	0.225
9.77	18.03	0.225
9.77	18.04	0.225
9.77	18.05	0.225
9.78	18.05	0.225
9.78	18.06	0.225
9.78	18.07	0.225
9.78	18.08	0.225
9.78	18.09	0.225
9.78	18.09	0.225
9.78	18.10	0.225
9.79	18.11	0.225
9.79	18.12	0.225
9.79	18.13	0.225
9.79	18.14	0.225
9.79	18.14	0.225
9.80	18.15	0.225
9.80	18.16	0.225
9.80	18.17	0.225
9.80	18.18	0.225
9.80	18.19	0.225
9.80	18.20	0.225
9.80	18.20	0.225
9.81	18.21	0.226
9.81	18.22	0.225
9.81	18.23	0.226
9.81	18.24	0.226
9.81	18.25	0.226
9.82	18.25	0.226
9.82	18.26	0.226
9.82	18.27	0.226
9.82	18.28	0.226
9.82	18.29	0.226
9.82	18.29	0.226
9.83	18.30	0.226
9.83	18.31	0.226
9.83	18.32	0.226
9.83	18.33	0.226
9.83	18.34	0.226
9.83	18.34	0.226
9.83	18.35	0.226
9.84	18.36	0.226
9.84	18.37	0.226
9.84	18.38	0.226
9.84	18.39	0.226
9.84	18.39	0.226
9.85	18.40	0.226
9.85	18.41	0.226
9.85	18.42	0.226
9.85	18.43	0.226
9.85	18.44	0.226
9.85	18.44	0.226
9.85	18.45	0.226
9.86	18.46	0.226
9.86	18.47	0.226
9.86	18.48	0.226
9.86	18.49	0.226
9.86	18.50	0.226
9.87	18.50	0.226
9.87	18.51	0.226
9.87	18.52	0.226
9.87	18.53	0.226
9.87	18.54	0.226
9.87	18.55	0.226
9.88	18.55	0.226
9.88	18.56	0.226
9.88	18.57	0.226
9.88	18.58	0.226
9.88	18.59	0.226
9.88	18.59	0.226
9.88	18.60	0.226
9.89	18.61	0.226
9.89	18.62	0.226
9.89	18.63	0.226
9.89	18.64	0.226
9.89	18.64	0.226
9.90	18.65	0.226
9.90	18.66	0.226
9.90	18.67	0.226
9.90	18.68	0.226
9.90	18.69	0.226
9.90	18.70	0.226
9.90	18.71	0.226
9.91	18.71	0.226
9.91	18.72	0.226
9.91	18.73	0.226
9.91	18.74	0.226
9.91	18.75	0.226
9.92	18.75	0.226
9.92	18.76	0.226
9.92	18.77	0.226
9.92	18.78	0.226
9.92	18.79	0.226
9.92	18.80	0.226
9.93	18.80	0.226
9.93	18.81	0.226
9.93	18.82	0.226
9.93	18.83	0.226
9.93	18.84	0.226
9.93	18.84	0.226
9.93	18.85	0.226
9.94	18.86	0.226
9.94	18.87	0.226
9.94	18.88	0.226
9.94	18.89	0.226
9.94	18.90	0.226
9.95	18.90	0.226
9.95	18.91	0.226
9.95	18.92	0.226
9.95	18.93	0.226
9.95	18.94	0.226
9.95	18.94	0.226
9.95	18.95	0.226
9.96	18.96	0.226
9.96	18.97	0.226
9.96	18.98	0.226
9.96	18.99	0.226
9.96	19.00	0.226
9.97	19.00	0.226
9.97	19.01	0.226
9.97	19.02	0.226
9.97	19.03	0.226
9.97	19.04	0.226
9.97	19.04	0.226
9.98	19.05	0.226
9.98	19.06	0.226
9.98	19.07	0.226
9.98	19.08	0.226
9.98	19.09	0.226
9.98	19.10	0.226
9.98	19.10	0.226
9.99	19.11	0.226
9.99	19.12	0.226
9.99	19.13	0.226
9.99	19.14	0.226
9.99	19.15	0.226
10.00	19.15	0.226
10.00	19.16	0.226
10.00	19.17	0.226
10.00	19.18	0.226
10.00	19.19	0.226
10.00	19.20	0.226
10.00	19.20	0.226
10.01	19.21	0.226
10.01	19.22	0.226
10.01	19.23	0.226
10.01	19.24	0.226
10.01	19.25	0.226
10.02	19.25	0.226
10.02	19.26	0.226
10.02	19.27	0.226
10.02	19.28	0.226
10.02	19.29	0.226
10.02	19.30	0.226
10.03	19.30	0.226
10.03	19.31	0.226
10.03	19.32	0.226
10.03	19.33	0.226
10.03	19.34	0.226
10.03	19.35	0.226
10.03	19.35	0.226
10.04	19.36	0.226
10.04	19.37	0.226
10.04	19.38	0.226
10.04	19.39	0.226
10.04	19.40	0.226
10.05	19.40	0.226
10.05	19.41	0.226
10.05	19.42	0.226
10.05	19.43	0.226
10.05	19.44	0.226
10.05	19.45	0.226
10.05	19.45	0.226
10.06	19.46	0.226
10.06	19.47	0.226
10.06	19.48	0.226
10.06	19.49	0.226
10.06	19.50	0.226
10.07	19.50	0.226
10.07	19.51	0.226
10.07	19.52	0.226
10.07	19.53	0.226
10.07	19.54	0.226
10.07	19.55	0.226
10.08	19.55	0.226
10.08	19.56	0.226
10.08	19.57	0.226
10.08	19.58	0.226
10.08	19.59	0.226
10.08	19.60	0.226
10.08	19.60	0.226
10.09	19.61	0.226
10.09	19.62	0.226
10.09	19.63	0.226
10.09	19.64	0.226
10.09	19.65	0.226
10.10	19.65	0.226
10.10	19.66	0.226
10.10	19.67	0.226
10.10	19.68	0.226
10.10	19.69	0.226
10.10	19.70	0.226
10.10	19.71	0.226
10.11	19.71	0.226
10.11	19.72	0.226
10.11	19.73	0.226
10.11	19.74	0.226
10.11	19.75	0.226
10.12	19.75	0.226
10.12	19.76	0.226
10.12	19.77	0.226
10.12	19.78	0.226
10.12	19.79	0.226
10.12	19.80	0.226
10.13	19.80	0.226
10.13	19.81	0.226
10.13	19.82	0.226
10.13	19.83	0.226
10.13	19.84	0.226
10.13	19.85	0.226
10.13	19.85	0.226
10.14	19.86	0.226
10.14	19.87	0.226
10.14	19.88	0.226
10.14	19.89	0.226
10.14	19.90	0.226
10.15	19.90	0.226
10.15	19.91	0.226
10.15	19.92	0.226
10.15	19.93	0.226
10.15	19.94	0.226
10.15	19.95	0.226
10.15	19.95	0.226
10.16	19.96	0.226
10.16	19.97	0.226
10.16	19.98	0.226
10.16	19.99	0.226
10.16	20.00	0.226
10.17	20.00	0.226
10.17	20.01	0.226
10.17	20.02	0.226
10.17	20.03	0.226
10.17	20.04	0.226
10.17	20.05	0.226
10.18	20.05	0.226
10.18	20.06	0.226
10.18	20.07	0.226
10.18	20.08	0.226
10.18	20.09	0.226
10.18	20.10	0.226
10.18	20.10	0.226
10.19	20.11	0.226
10.19	20.12	0.226
10.19	20.13	0.226
10.19	20.14	0.226
10.19	20.15	0.226
10.20	20.15	0.226
10.20	20.16	0.226
10.20	20.17	0.226
10.20	20.18	0.226
10.20	20.19	0.226
10.20	20.20	0.226
10.20	20.20	0.226
10.21	20.21	0.226
10.21	20.22	0.226
10.21	20.23	0.226
10.21	20.24	0.226
10.21	20.25	0.226
10.22	20.26	0.226
10.22	20.26	0.226
10.22	20.27	0.226
10.22	20.28	0.226
10.22	20.29	0.226
10.22	20.30	0.226
10.23	20.31	0.226
10.23	20.31	0.226
10.23	20.32	0.226
10.23	20.33	0.226
10.23	20.34	0.226
10.23	20.34	0.226
10.23	20.35	0.226
10.24	20.36	0.226
10.24	20.37	0.226
10.24	20.38	0.226
10.24	20.39	0.226
10.24	20.40	0.226
10.25	20.40	0.226
10.25	20.41	0.226
10.25	20.42	0.226
10.25	20.43	0.226
10.25	20.44	0.226
10.25	20.45	0.226
10.25	20.45	0.226
10.26	20.46	0.226
10.26	20.47	0.226
10.26	20.48	0.226
10.26	20.49	0.226
10.26	20.50	0.226
10.27	20.50	0.226
10.27	20.51	0.227
10.27	20.52	0.227
10.27	20.53	0.227
10.27	20.54	0.227
10.27	20.55	0.227
10.28	20.55	0.227
10.28	20.56	0.227
10.28	20.57	0.227
10.28	20.58	0.227
10.28	20.59	0.227
10.28	20.60	0.227
10.28	20.60	0.227
10.29	20.61	0.227
10.29	20.62	0.227
10.29	20.63	0.227
10.29	20.64	0.227
10.29	20.65	0.227
10.30	20.66	0.227
10.30	20.66	0.227
10.30	20.67	0.227
10.30	20.68	0.227
10.30	20.69	0.227
10.30	20.70	0.227
10.30	20.71	0.227
10.31	20.71	0.227
10.31	20.72	0.227
10.31	20.73	0.227
10.31	20.74	0.227
10.31	20.75	0.227
10.32	20.75	0.227
10.32	20.76	0.227
10.32	20.77	0.227
10.32	20.78	0.227
10.32	20.79	0.226
10.32	20.80	0.226
10.33	20.80	0.226
10.33	20.81	0.227
10.33	20.82	0.227
10.33	20.83	0.227
10.33	20.84	0.227
10.33	20.85	0.227
10.33	20.86	0.227
10.34	20.86	0.227
10.34	20.87	0.227
10.34	20.88	0.227
10.34	20.89	0.227
10.34	20.90	0.227
10.35	20.91	0.227
10.35	20.91	0.227
10.35	20.92	0.227
10.35	20.93	0.227
10.35	20.94	0.227
10.35	20.95	0.226
10.35	20.96	0.226
10.36	20.96	0.226
10.36	20.97	0.226
10.36	20.98	0.226
10.36	20.99	0.226
10.36	21.00	0.226
10.37	21.01	0.226
10.37	21.01	0.226
10.37	21.02	0.226
10.37	21.03	0.226
10.37	21.04	0.226
10.37	21.05	0.226
10.38	21.06	0.226
10.38	21.06	0.226
10.38	21.07	0.226
10.38	21.08	0.226
10.38	21.09	0.226
10.38	21.10	0.226
10.38	21.11	0.226
10.39	21.11	0.226
10.39	21.12	0.226
10.39	21.13	0.226
10.39	21.14	0.226
10.39	21.15	0.226
10.40	21.16	0.226
10.40	21.16	0.226
10.40	21.17	0.226
10.40	21.18	0.226
10.40	21.19	0.226
10.40	21.20	0.226
10.40	21.21	0.226
10.41	21.21	0.227
10.41	21.22	0.227
10.41	21.23	0.227
10.41	21.24	0.227
10.41	21.25	0.227
10.42	21.26	0.227
10.42	21.26	0.227
10.42	21.27	0.227
10.42	21.28	0.227
10.42	21.29	0.227
10.42	21.30	0.227
10.43	21.31	0.227
10.43	21.31	0.227
10.43	21.32	0.227
10.43	21.33	0.227
10.43	21.34	0.227
10.43	21.35	0.227
10.43	21.36	0.227
10.44	21.36	0.227
10.44	21.37	0.227
10.44	21.38	0.227
10.44	21.39	0.227
10.44	21.40	0.227
10.45	21.41	0.227
10.45	21.41	0.227
10.45	21.42	0.227
10.45	21.43	0.227
10.45	21.44	0.227
10.45	21.45	0.227
10.45	21.46	0.227
10.46	21.46	0.227
10.46	21.47	0.227
10.46	21.48	0.227
10.46	21.49	0.227
10.46	21.50	0.227
10.47	21.51	0.227
10.47	21.51	0.227
10.47	21.52	0.227
10.47	21.53	0.227
10.47	21.54	0.227
10.47	21.55	0.227
10.48	21.56	0.227
10.48	21.56	0.227
10.48	21.57	0.227
10.48	21.58	0.227
10.48	21.59	0.227
10.48	21.60	0.227
10.48	21.61	0.227
10.49	21.61	0.227
10.49	21.62	0.227
10.49	21.63	0.227
10.49	21.64	0.227
10.49	21.65	0.227
10.50	21.66	0.227
10.50	21.67	0.227
10.50	21.67	0.227
10.50	21.68	0.227
10.50	21.69	0.227
10.50	21.70	0.227
10.50	21.71	0.227
10.51	21.71	0.227
10.51	21.72	0.227
10.51	21.73	0.227
10.51	21.74	0.227
10.51	21.75	0.227
10.52	21.76	0.227
10.52	21.76	0.227
10.52	21.77	0.227
10.52	21.78	0.227
10.52	21.79	0.227
10.52	21.80	0.227
10.53	21.81	0.227
10.53	21.81	0.227
10.53	21.82	0.227
10.53	21.83	0.227
10.53	21.84	0.227
10.53	21.85	0.227
10.53	21.86	0.227
10.54	21.86	0.227
10.54	21.87	0.227
10.54	21.88	0.227
10.54	21.89	0.227
10.54	21.90	0.227
10.55	21.91	0.227
10.55	21.91	0.227
10.55	21.92	0.227
10.55	21.93	0.227
10.55	21.94	0.227
10.55	21.95	0.227
10.55	21.96	0.227
10.56	21.96	0.227
10.56	21.97	0.227
10.56	21.98	0.227
10.56	21.99	0.227
10.56	22.00	0.227
10.57	22.01	0.227
10.57	22.01	0.227
10.57	22.02	0.227
10.57	22.03	0.227
10.57	22.04	0.227
10.57	22.05	0.227
10.58	22.06	0.227
10.58	22.06	0.227
10.58	22.07	0.227
10.58	22.08	0.227
10.58	22.09	0.227
10.58	22.10	0.227
10.58	22.11	0.227
10.59	22.11	0.227
10.59	22.12	0.227
10.59	22.13	0.227
10.59	22.14	0.227
10.59	22.15	0.227
10.60	22.16	0.227
10.60	22.16	0.227
10.60	22.17	0.227
10.60	22.18	0.227
10.60	22.19	0.227
10.60	22.20	0.227
10.60	22.20	0.227
10.61	22.21	0.227
10.61	22.22	0.227
10.61	22.23	0.227
10.61	22.24	0.227
10.61	22.25	0.227
10.62	22.26	0.227
10.62	22.26	0.227
10.62	22.27	0.227
10.62	22.28	0.227
10.62	22.29	0.227
10.62	22.30	0.227
10.63	22.31	0.227
10.63	22.31	0.227
10.63	22.32	0.227
10.63	22.33	0.227
10.63	22.34	0.227
10.63	22.35	0.227
10.63	22.36	0.227
10.64	22.36	0.227
10.64	22.37	0.227
10.64	22.38	0.227
10.64	22.39	0.227
10.64	22.40	0.227
10.65	22.41	0.227
10.65	22.41	0.227
10.65	22.42	0.227
10.65	22.43	0.227
10.65	22.44	0.227
10.65	22.45	0.227
10.65	22.45	0.227
10.66	22.46	0.227
10.66	22.47	0.227
10.66	22.48	0.227
10.66	22.49	0.227
10.66	22.50	0.227
10.67	22.50	0.227
10.67	22.51	0.227
10.67	22.52	0.227
10.67	22.53	0.227
10.67	22.54	0.227
10.67	22.55	0.227
10.68	22.56	0.227
10.68	22.56	0.227
10.68	22.57	0.227
10.68	22.58	0.227
10.68	22.59	0.227
10.68	22.60	0.227
10.68	22.61	0.227
10.69	22.61	0.227
10.69	22.62	0.227
10.69	22.63	0.227
10.69	22.64	0.227
10.69	22.65	0.227
10.70	22.65	0.227
10.70	22.66	0.227
10.70	22.67	0.227
10.70	22.68	0.227
10.70	22.69	0.227
10.70	22.70	0.227
10.70	22.71	0.227
10.71	22.71	0.227
10.71	22.72	0.227
10.71	22.73	0.227
10.71	22.74	0.227
10.71	22.75	0.227
10.72	22.76	0.227
10.72	22.76	0.227
10.72	22.77	0.227
10.72	22.78	0.227
10.72	22.79	0.227
10.72	22.80	0.227
10.73	22.81	0.227
10.73	22.81	0.227
10.73	22.82	0.227
10.73	22.83	0.227
10.73	22.84	0.227
10.73	22.85	0.227
10.73	22.86	0.227
10.74	22.86	0.227
10.74	22.87	0.227
10.74	22.88	0.227
10.74	22.89	0.227
10.74	22.90	0.227
10.75	22.91	0.227
10.75	22.91	0.227
10.75	22.92	0.227
10.75	22.93	0.227
10.75	22.94	0.227
10.75	22.95	0.227
10.75	22.96	0.227
10.76	22.96	0.227
10.76	22.97	0.227
10.76	22.98	0.227
10.76	22.99	0.227
10.76	23.00	0.227
10.77	23.01	0.227
10.77	23.01	0.227
10.77	23.02	0.227
10.77	23.03	0.227
10.77	23.04	0.227
10.77	23.05	0.227
10.78	23.06	0.227
10.78	23.06	0.227
10.78	23.07	0.227
10.78	23.08	0.227
10.78	23.09	0.227
10.78	23.10	0.227
10.78	23.11	0.227
10.79	23.12	0.227
10.79	23.12	0.227
10.79	23.13	0.227
10.79	23.14	0.227
10.79	23.15	0.227
10.80	23.16	0.227
10.80	23.16	0.227
10.80	23.17	0.227
10.80	23.18	0.227
10.80	23.19	0.227
10.80	23.20	0.227
10.80	23.21	0.227
10.81	23.21	0.227
10.81	23.22	0.227
10.81	23.23	0.227
10.81	23.24	0.227
10.81	23.25	0.227
10.82	23.26	0.227
10.82	23.27	0.227
10.82	23.27	0.227
10.82	23.28	0.227
10.82	23.29	0.227
10.82	23.30	0.227
10.83	23.31	0.227
10.83	23.31	0.227
10.83	23.32	0.227
10.83	23.33	0.227
10.83	23.34	0.227
10.83	23.35	0.227
10.83	23.36	0.227
10.84	23.36	0.227
10.84	23.37	0.227
10.84	23.38	0.227
10.84	23.39	0.227
10.84	23.40	0.227
10.85	23.41	0.227
10.85	23.42	0.227
10.85	23.42	0.227
10.85	23.43	0.227
10.85	23.44	0.227
10.85	23.45	0.227
10.85	23.46	0.227
10.86	23.47	0.227
10.86	23.47	0.227
10.86	23.48	0.227
10.86	23.49	0.227
10.86	23.50	0.227
10.87	23.51	0.227
10.87	23.52	0.227
10.87	23.52	0.227
10.87	23.53	0.227
10.87	23.54	0.227
10.87	23.55	0.228
10.88	23.56	0.228
10.88	23.57	0.228
10.88	23.57	0.228
10.88	23.58	0.228
10.88	23.59	0.228
10.88	23.60	0.228
10.88	23.61	0.228
10.89	23.62	0.228
10.89	23.62	0.228
10.89	23.63	0.228
10.89	23.64	0.228
10.89	23.65	0.228
10.90	23.66	0.228
10.90	23.67	0.228
10.90	23.67	0.228
10.90	23.68	0.228
10.90	23.69	0.228
10.90	23.70	0.228
10.90	23.71	0.228
10.91	23.72	0.228
10.91	23.72	0.228
10.91	23.73	0.228
10.91	23.74	0.228
10.91	23.75	0.228
10.92	23.76	0.228
10.92	23.76	0.228
10.92	23.77	0.228
10.92	23.78	0.228
10.92	23.79	0.228
10.92	23.80	0.228
10.93	23.81	0.228
10.93	23.82	0.228
10.93	23.82	0.228
10.93	23.83	0.228
10.93	23.84	0.228
10.93	23.85	0.228
10.93	23.86	0.228
10.94	23.86	0.228
10.94	23.87	0.228
10.94	23.88	0.228
10.94	23.89	0.228
10.94	23.90	0.228
10.95	23.91	0.228
10.95	23.91	0.228
10.95	23.92	0.228
10.95	23.93	0.228
10.95	23.94	0.228
10.95	23.95	0.228
10.95	23.96	0.228
10.96	23.97	0.228
10.96	23.97	0.228
10.96	23.98	0.228
10.96	23.99	0.228
10.96	24.00	0.228
10.97	24.01	0.228
10.97	24.02	0.228
10.97	24.02	0.228
10.97	24.03	0.228
10.97	24.04	0.228
10.97	24.05	0.228
10.98	24.06	0.228
10.98	24.06	0.228
10.98	24.07	0.228
10.98	24.08	0.228
10.98	24.09	0.228
10.98	24.10	0.228
10.98	24.11	0.228
10.99	24.11	0.228
10.99	24.12	0.228
10.99	24.13	0.228
10.99	24.14	0.228
10.99	24.15	0.228
11.00	24.16	0.228
11.00	24.17	0.228
11.00	24.17	0.228
11.00	24.18	0.228
11.00	24.19	0.228
11.00	24.20	0.228
11.00	24.21	0.228
11.01	24.21	0.228
11.01	24.22	0.228
11.01	24.23	0.228
11.01	24.24	0.228
11.01	24.25	0.228
11.02	24.26	0.228
11.02	24.27	0.228
11.02	24.27	0.228
11.02	24.28	0.228
11.02	24.29	0.228
11.02	24.30	0.228
11.03	24.31	0.228
11.03	24.31	0.228
11.03	24.32	0.228
11.03	24.33	0.228
11.03	24.34	0.228
11.03	24.35	0.228
11.03	24.36	0.228
11.04	24.37	0.228
11.04	24.37	0.228
11.04	24.38	0.228
11.04	24.39	0.228
11.04	24.40	0.228
11.05	24.41	0.228
11.05	24.42	0.228
11.05	24.42	0.228
11.05	24.43	0.228
11.05	24.44	0.228
11.05	24.45	0.228
11.05	24.46	0.228
11.06	24.47	0.228
11.06	24.47	0.228
11.06	24.48	0.228
11.06	24.49	0.228
11.06	24.50	0.228
11.07	24.51	0.228
11.07	24.52	0.228
11.07	24.52	0.228
11.07	24.53	0.228
11.07	24.54	0.228
11.07	24.55	0.228
11.08	24.56	0.228
11.08	24.57	0.228
11.08	24.57	0.228
11.08	24.58	0.228
11.08	24.59	0.228
11.08	24.60	0.228
11.08	24.61	0.228
11.09	24.62	0.228
11.09	24.62	0.228
11.09	24.63	0.228
11.09	24.64	0.228
11.09	24.65	0.228
11.10	24.66	0.228
11.10	24.67	0.228
11.10	24.67	0.228
11.10	24.68	0.228
11.10	24.69	0.228
11.10	24.70	0.228
11.10	24.71	0.228
11.11	24.72	0.228
11.11	24.72	0.228
11.11	24.73	0.228
11.11	24.74	0.228
11.11	24.75	0.228
11.12	24.76	0.228
11.12	24.77	0.228
11.12	24.77	0.228
11.12	24.78	0.228
11.12	24.79	0.228
11.12	24.80	0.228
11.13	24.81	0.228
11.13	24.82	0.228
11.13	24.83	0.228
11.13	24.83	0.228
11.13	24.84	0.228
11.13	24.85	0.228
11.13	24.86	0.228
11.14	24.87	0.228
11.14	24.88	0.228
11.14	24.88	0.228
11.14	24.89	0.228
11.14	24.90	0.228
11.15	24.91	0.228
11.15	24.92	0.228
11.15	24.92	0.228
11.15	24.93	0.228
11.15	24.94	0.228
11.15	24.95	0.228
11.15	24.96	0.228
11.16	24.97	0.228
11.16	24.97	0.228
11.16	24.98	0.228
11.16	24.99	0.228
11.16	25.00	0.228
11.17	25.01	0.228
11.17	25.02	0.228
11.17	25.02	0.228
11.17	25.03	0.228
11.17	25.04	0.228
11.17	25.05	0.228
11.18	25.06	0.228
11.18	25.07	0.228
11.18	25.07	0.228
11.18	25.08	0.228
11.18	25.09	0.228
11.18	25.10	0.228
11.18	25.11	0.228
11.19	25.12	0.228
11.19	25.12	0.228
11.19	25.13	0.228
11.19	25.14	0.228
11.19	25.15	0.228
11.20	25.16	0.228
11.20	25.17	0.228
11.20	25.18	0.228
11.20	25.18	0.228
11.20	25.19	0.228
11.20	25.20	0.228
11.20	25.21	0.228
11.21	25.22	0.228
11.21	25.22	0.228
11.21	25.23	0.228
11.21	25.24	0.228
11.21	25.25	0.229
11.22	25.26	0.229
11.22	25.27	0.229
11.22	25.27	0.229
11.22	25.28	0.229
11.22	25.29	0.229
11.22	25.30	0.229
11.23	25.31	0.229
11.23	25.32	0.229
11.23	25.32	0.229
11.23	25.33	0.229
11.23	25.34	0.229
11.23	25.35	0.229
11.23	25.36	0.229
11.24	25.37	0.229
11.24	25.38	0.229
11.24	25.38	0.229
11.24	25.39	0.229
11.24	25.40	0.229
11.25	25.41	0.229
11.25	25.42	0.229
11.25	25.42	0.229
11.25	25.43	0.229
11.25	25.44	0.229
11.25	25.45	0.229
11.25	25.46	0.229
11.26	25.47	0.229
11.26	25.47	0.229
11.26	25.48	0.229
11.26	25.49	0.229
11.26	25.50	0.229
11.27	25.51	0.229
11.27	25.52	0.229
11.27	25.53	0.229
11.27	25.53	0.229
11.27	25.54	0.229
11.27	25.55	0.229
11.28	25.56	0.229
11.28	25.56	0.229
11.28	25.57	0.229
11.28	25.58	0.229
11.28	25.59	0.229
11.28	25.60	0.229
11.28	25.61	0.229
11.29	25.62	0.229
11.29	25.62	0.229
11.29	25.63	0.229
11.29	25.64	0.229
11.29	25.65	0.229
11.30	25.66	0.229
11.30	25.67	0.229
11.30	25.67	0.229
11.30	25.68	0.229
11.30	25.69	0.229
11.30	25.70	0.229
11.30	25.71	0.229
11.31	25.72	0.229
11.31	25.72	0.229
11.31	25.73	0.229
11.31	25.74	0.229
11.31	25.75	0.229
11.32	25.76	0.229
11.32	25.77	0.229
11.32	25.77	0.229
11.32	25.78	0.229
11.32	25.79	0.229
11.32	25.80	0.229
11.33	25.81	0.229
11.33	25.82	0.229
11.33	25.82	0.229
11.33	25.83	0.229
11.33	25.84	0.229
11.33	25.85	0.229
11.33	25.86	0.229
11.34	25.87	0.229
11.34	25.87	0.229
11.34	25.88	0.229
11.34	25.89	0.229
11.34	25.90	0.229
11.35	25.91	0.229
11.35	25.91	0.229
11.35	25.92	0.229
11.35	25.93	0.229
11.35	25.94	0.229
11.35	25.95	0.229
11.35	25.96	0.229
11.36	25.97	0.229
11.36	25.97	0.229
11.36	25.98	0.229
11.36	25.99	0.229
11.36	26.00	0.229
11.37	26.01	0.229
11.37	26.02	0.229
11.37	26.02	0.229
11.37	26.03	0.229
11.37	26.04	0.229
11.37	26.05	0.229
11.38	26.06	0.229
11.38	26.07	0.229
11.38	26.07	0.229
11.38	26.08	0.229
11.38	26.09	0.229
11.38	26.10	0.229
11.38	26.11	0.229
11.39	26.12	0.229
11.39	26.12	0.229
11.39	26.13	0.229
11.39	26.14	0.229
11.39	26.15	0.229
11.40	26.16	0.229
11.40	26.17	0.229
11.40	26.17	0.229
11.40	26.18	0.229
11.40	26.19	0.229
11.40	26.20	0.229
11.40	26.21	0.229
11.41	26.22	0.229
11.41	26.22	0.229
11.41	26.23	0.229
11.41	26.24	0.229
11.41	26.25	0.229
11.42	26.26	0.229
11.42	26.27	0.229
11.42	26.28	0.229
11.42	26.28	0.229
11.42	26.29	0.229
11.42	26.30	0.229
11.43	26.31	0.229
11.43	26.32	0.229
11.43	26.32	0.229
11.43	26.33	0.229
11.43	26.34	0.229
11.43	26.35	0.229
11.43	26.36	0.229
11.44	26.37	0.229
11.44	26.37	0.229
11.44	26.38	0.229
11.44	26.39	0.229
11.44	26.40	0.229
11.45	26.41	0.229
11.45	26.42	0.229
11.45	26.43	0.229
11.45	26.43	0.229
11.45	26.44	0.229
11.45	26.45	0.229
11.45	26.46	0.229
11.46	26.47	0.229
11.46	26.47	0.229
11.46	26.48	0.229
11.46	26.49	0.229
11.46	26.50	0.229
11.47	26.51	0.229
11.47	26.52	0.229
11.47	26.52	0.229
11.47	26.53	0.229
11.47	26.54	0.229
11.47	26.55	0.229
11.48	26.56	0.229
11.48	26.57	0.229
11.48	26.57	0.229
11.48	26.58	0.229
11.48	26.59	0.229
11.48	26.60	0.229
11.48	26.61	0.229
11.49	26.62	0.229
11.49	26.63	0.229
11.49	26.63	0.229
11.49	26.64	0.229
11.49	26.65	0.229
11.50	26.66	0.229
11.50	26.67	0.229
11.50	26.67	0.229
11.50	26.68	0.229
11.50	26.69	0.229
11.50	26.70	0.229
11.50	26.71	0.229
11.51	26.72	0.229
11.51	26.72	0.229
11.51	26.73	0.229
11.51	26.74	0.229
11.51	26.75	0.229
11.52	26.76	0.229
11.52	26.77	0.229
11.52	26.78	0.229
11.52	26.78	0.229
11.52	26.79	0.229
11.52	26.80	0.229
11.53	26.81	0.229
11.53	26.82	0.229
11.53	26.83	0.229
11.53	26.83	0.229
11.53	26.84	0.229
11.53	26.85	0.229
11.53	26.86	0.229
11.54	26.87	0.229
11.54	26.87	0.229
11.54	26.88	0.229
11.54	26.89	0.229
11.54	26.90	0.229
11.55	26.91	0.229
11.55	26.92	0.229
11.55	26.92	0.229
11.55	26.93	0.229
11.55	26.94	0.229
11.55	26.95	0.229
11.55	26.96	0.229
11.56	26.97	0.229
11.56	26.98	0.229
11.56	26.98	0.229
11.56	26.99	0.229
11.56	27.00	0.229
11.57	27.01	0.229
11.57	27.02	0.229
11.57	27.03	0.229
11.57	27.03	0.229
11.57	27.04	0.229
11.57	27.05	0.229
11.58	27.06	0.229
11.58	27.07	0.229
11.58	27.08	0.229
11.58	27.08	0.229
11.58	27.09	0.229
11.58	27.10	0.229
11.58	27.11	0.229
11.59	27.12	0.229
11.59	27.13	0.229
11.59	27.13	0.229
11.59	27.14	0.229
11.59	27.15	0.229
11.60	27.16	0.229
11.60	27.17	0.229
11.60	27.18	0.229
11.60	27.18	0.229
11.60	27.19	0.229
11.60	27.20	0.229
11.60	27.21	0.229
11.61	27.22	0.229
11.61	27.23	0.229
11.61	27.24	0.229
11.61	27.24	0.229
11.61	27.25	0.229
11.62	27.26	0.229
11.62	27.27	0.229
11.62	27.28	0.229
11.62	27.29	0.229
11.62	27.29	0.229
11.62	27.30	0.229
11.63	27.31	0.229
11.63	27.32	0.229
11.63	27.33	0.229
11.63	27.34	0.229
11.63	27.34	0.229
11.63	27.35	0.229
11.63	27.36	0.229
11.64	27.37	0.229
11.64	27.38	0.229
11.64	27.39	0.229
11.64	27.39	0.229
11.64	27.40	0.229
11.65	27.41	0.229
11.65	27.42	0.229
11.65	27.43	0.229
11.65	27.44	0.229
11.65	27.44	0.229
11.65	27.45	0.229
11.65	27.46	0.229
11.66	27.47	0.229
11.66	27.48	0.230
11.66	27.49	0.230
11.66	27.49	0.230
11.66	27.50	0.230
11.67	27.51	0.230
11.67	27.52	0.230
11.67	27.53	0.230
11.67	27.54	0.230
11.67	27.54	0.230
11.67	27.55	0.230
11.68	27.56	0.230
11.68	27.57	0.230
11.68	27.58	0.230
11.68	27.59	0.230
11.68	27.60	0.230
11.68	27.60	0.230
11.68	27.61	0.230
11.69	27.62	0.230
11.69	27.63	0.230
11.69	27.64	0.230
11.69	27.64	0.230
11.69	27.65	0.230
11.70	27.66	0.230
11.70	27.67	0.230
11.70	27.68	0.230
11.70	27.69	0.230
11.70	27.69	0.230
11.70	27.70	0.230
11.70	27.71	0.230
11.71	27.72	0.230
11.71	27.73	0.230
11.71	27.74	0.230
11.71	27.74	0.230
11.71	27.75	0.230
11.72	27.76	0.230
11.72	27.77	0.230
11.72	27.78	0.230
11.72	27.79	0.230
11.72	27.79	0.230
11.72	27.80	0.230
11.73	27.81	0.230
11.73	27.82	0.230
11.73	27.83	0.230
11.73	27.84	0.230
11.73	27.85	0.230
11.73	27.85	0.230
11.73	27.86	0.230
11.74	27.87	0.230
11.74	27.88	0.230
11.74	27.89	0.230
11.74	27.89	0.230
11.74	27.90	0.230
11.75	27.91	0.230
11.75	27.92	0.230
11.75	27.93	0.230
11.75	27.94	0.230
11.75	27.95	0.230
11.75	27.95	0.230
11.75	27.96	0.230
11.76	27.97	0.230
11.76	27.98	0.230
11.76	27.99	0.230
11.76	27.99	0.230
11.76	28.00	0.230
11.77	28.01	0.230
11.77	28.02	0.230
11.77	28.03	0.230
11.77	28.03	0.230
11.77	28.04	0.230
11.77	28.05	0.230
11.78	28.06	0.230
11.78	28.07	0.230
11.78	28.08	0.230
11.78	28.09	0.230
11.78	28.10	0.230
11.78	28.10	0.230
11.78	28.11	0.230
11.79	28.12	0.230
11.79	28.13	0.230
11.79	28.14	0.230
11.79	28.14	0.230
11.79	28.15	0.230
11.80	28.16	0.230
11.80	28.17	0.230
11.80	28.18	0.230
11.80	28.19	0.230
11.80	28.19	0.230
11.80	28.20	0.231
11.80	28.21	0.231
11.81	28.22	0.231
11.81	28.23	0.231
11.81	28.24	0.231
11.81	28.25	0.231
11.81	28.25	0.231
11.82	28.26	0.231
11.82	28.27	0.231
11.82	28.28	0.231
11.82	28.29	0.231
11.82	28.29	0.231
11.82	28.30	0.231
11.83	28.31	0.231
11.83	28.32	0.231
11.83	28.33	0.231
11.83	28.34	0.231
11.83	28.34	0.231
11.83	28.35	0.231
11.83	28.36	0.231
11.84	28.37	0.231
11.84	28.38	0.231
11.84	28.39	0.231
11.84	28.39	0.231
11.84	28.40	0.231
11.85	28.41	0.231
11.85	28.42	0.231
11.85	28.43	0.231
11.85	28.44	0.231
11.85	28.45	0.231
11.85	28.45	0.231
11.85	28.46	0.231
11.86	28.47	0.231
11.86	28.48	0.231
11.86	28.49	0.231
11.86	28.49	0.231
11.86	28.50	0.231
11.87	28.51	0.231
11.87	28.52	0.231
11.87	28.53	0.231
11.87	28.54	0.231
11.87	28.55	0.231
11.87	28.55	0.231
11.88	28.56	0.231
11.88	28.57	0.231
11.88	28.58	0.231
11.88	28.59	0.231
11.88	28.59	0.231
11.88	28.60	0.231
11.88	28.61	0.231
11.89	28.62	0.231
11.89	28.63	0.231
11.89	28.64	0.231
11.89	28.64	0.231
11.89	28.65	0.231
11.90	28.66	0.231
11.90	28.67	0.231
11.90	28.68	0.231
11.90	28.69	0.231
11.90	28.69	0.231
11.90	28.70	0.231
11.90	28.71	0.231
11.91	28.72	0.231
11.91	28.73	0.231
11.91	28.74	0.231
11.91	28.74	0.231
11.91	28.75	0.231
11.92	28.76	0.231
11.92	28.77	0.231
11.92	28.78	0.231
11.92	28.79	0.231
11.92	28.79	0.231
11.92	28.80	0.231
11.93	28.81	0.231
11.93	28.82	0.231
11.93	28.83	0.231
11.93	28.84	0.231
11.93	28.85	0.231
11.93	28.85	0.231
11.93	28.86	0.231
11.94	28.87	0.231
11.94	28.88	0.231
11.94	28.89	0.231
11.94	28.89	0.231
11.94	28.90	
11.95	28.91	
11.95	28.92	
11.95	28.93	
11.95	28.94	
11.95	28.94	
11.95	28.95	
11.95	28.96	
11.96	28.97	
11.96	28.98	
11.96	28.99	
11.96	29.00	
11.96	29.00	
11.97	29.01	
11.97	29.02	
11.97	29.03	
11.97	29.03	
11.97	29.04	
11.97	29.05	
11.98	29.06	
11.98	29.07	
11.98	29.08	
11.98	29.08	
11.98	29.09	
11.98	29.10	
11.98	29.11	
11.99	29.12	
11.99	29.13	
11.99	29.14	
11.99	29.14	
11.99		
12.00		
12.00		
12.00		
12.00		

