Created as New Dataset,Sample 346 By YargerLab Date Monday, August 19 2024
cm-1,A
4000.00,-0.0003
3999.00,-0.0003
3998.00,-0.0003
3997.00,-0.0003
3996.00,-0.0003
3995.00,-0.0003
3994.00,-0.0003
3993.00,-0.0003
3992.00,-0.0003
3991.00,-0.0003
3990.00,-0.0003
3989.00,-0.0003
3988.00,-0.0003
3987.00,-0.0003
3986.00,-0.0003
3985.00,-0.0003
3984.00,-0.0003
3983.00,-0.0003
3982.00,-0.0003
3981.00,-0.0003
3980.00,-0.0003
3979.00,-0.0003
3978.00,-0.0003
3977.00,-0.0003
3976.00,-0.0003
3975.00,-0.0003
3974.00,-0.0003
3973.00,-0.0003
3972.00,-0.0003
3971.00,-0.0003
3970.00,-0.0003
3969.00,-0.0003
3968.00,-0.0003
3967.00,-0.0003
3966.00,-0.0003
3965.00,-0.0003
3964.00,-0.0003
3963.00,-0.0003
3962.00,-0.0003
3961.00,-0.0003
3960.00,-0.0003
3959.00,-0.0003
3958.00,-0.0003
3957.00,-0.0003
3956.00,-0.0003
3955.00,-0.0003
3954.00,-0.0003
3953.00,-0.0003
3952.00,-0.0003
3951.00,-0.0003
3950.00,-0.0003
3949.00,-0.0002
3948.00,-0.0002
3947.00,-0.0002
3946.00,-0.0002
3945.00,-0.0002
3944.00,-0.0003
3943.00,-0.0003
3942.00,-0.0003
3941.00,-0.0003
3940.00,-0.0003
3939.00,-0.0003
3938.00,-0.0003
3937.00,-0.0003
3936.00,-0.0003
3935.00,-0.0003
3934.00,-0.0002
3933.00,-0.0002
3932.00,-0.0002
3931.00,-0.0003
3930.00,-0.0003
3929.00,-0.0003
3928.00,-0.0003
3927.00,-0.0003
3926.00,-0.0003
3925.00,-0.0003
3924.00,-0.0003
3923.00,-0.0003
3922.00,-0.0002
3921.00,-0.0002
3920.00,-0.0002
3919.00,-0.0002
3918.00,-0.0002
3917.00,-0.0002
3916.00,-0.0003
3915.00,-0.0003
3914.00,-0.0003
3913.00,-0.0003
3912.00,-0.0003
3911.00,-0.0003
3910.00,-0.0003
3909.00,-0.0003
3908.00,-0.0003
3907.00,-0.0003
3906.00,-0.0002
3905.00,-0.0002
3904.00,-0.0002
3903.00,-0.0001
3902.00,-0.0001
3901.00,-0.0002
3900.00,-0.0002
3899.00,-0.0002
3898.00,-0.0003
3897.00,-0.0003
3896.00,-0.0002
3895.00,-0.0002
3894.00,-0.0002
3893.00,-0.0002
3892.00,-0.0002
3891.00,-0.0002
3890.00,-0.0003
3889.00,-0.0002
3888.00,-0.0002
3887.00,-0.0002
3886.00,-0.0002
3885.00,-0.0002
3884.00,-0.0002
3883.00,-0.0002
3882.00,-0.0002
3881.00,-0.0002
3880.00,-0.0002
3879.00,-0.0002
3878.00,-0.0002
3877.00,-0.0002
3876.00,-0.0002
3875.00,-0.0002
3874.00,-0.0002
3873.00,-0.0002
3872.00,-0.0002
3871.00,-0.0001
3870.00,-0.0001
3869.00,-0.0001
3868.00,-0.0001
3867.00,-0.0001
3866.00,-0.0001
3865.00,-0.0002
3864.00,-0.0002
3863.00,-0.0002
3862.00,-0.0002
3861.00,-0.0002
3860.00,-0.0002
3859.00,-0.0002
3858.00,-0.0002
3857.00,-0.0002
3856.00,-0.0002
3855.00,-0.0002
3854.00,-0.0002
3853.00,-0.0002
3852.00,-0.0002
3851.00,-0.0002
3850.00,-0.0002
3849.00,-0.0002
3848.00,-0.0002
3847.00,-0.0002
3846.00,-0.0002
3845.00,-0.0002
3844.00,-0.0002
3843.00,-0.0001
3842.00,-0.0001
3841.00,-0.0001
3840.00,-0.0001
3839.00,-0.0001
3838.00,-0.0001
3837.00,-0.0001
3836.00,-0.0002
3835.00,-0.0002
3834.00,-0.0002
3833.00,-0.0002
3832.00,-0.0002
3831.00,-0.0002
3830.00,-0.0002
3829.00,-0.0002
3828.00,-0.0002
3827.00,-0.0002
3826.00,-0.0002
3825.00,-0.0002
3824.00,-0.0002
3823.00,-0.0001
3822.00,-0.0001
3821.00,-0.0002
3820.00,-0.0002
3819.00,-0.0002
3818.00,-0.0002
3817.00,-0.0002
3816.00,-0.0002
3815.00,-0.0003
3814.00,-0.0003
3813.00,-0.0003
3812.00,-0.0002
3811.00,-0.0002
3810.00,-0.0002
3809.00,-0.0002
3808.00,-0.0002
3807.00,-0.0002
3806.00,-0.0002
3805.00,-0.0002
3804.00,-0.0002
3803.00,-0.0001
3802.00,-0.0001
3801.00,-0.0002
3800.00,-0.0002
3799.00,-0.0002
3798.00,-0.0002
3797.00,-0.0002
3796.00,-0.0002
3795.00,-0.0002
3794.00,-0.0003
3793.00,-0.0003
3792.00,-0.0003
3791.00,-0.0003
3790.00,-0.0003
3789.00,-0.0003
3788.00,-0.0003
3787.00,-0.0003
3786.00,-0.0003
3785.00,-0.0003
3784.00,-0.0003
3783.00,-0.0003
3782.00,-0.0003
3781.00,-0.0003
3780.00,-0.0003
3779.00,-0.0003
3778.00,-0.0003
3777.00,-0.0003
3776.00,-0.0003
3775.00,-0.0003
3774.00,-0.0003
3773.00,-0.0003
3772.00,-0.0002
3771.00,-0.0002
3770.00,-0.0002
3769.00,-0.0002
3768.00,-0.0002
3767.00,-0.0002
3766.00,-0.0002
3765.00,-0.0002
3764.00,-0.0002
3763.00,-0.0002
3762.00,-0.0002
3761.00,-0.0002
3760.00,-0.0002
3759.00,-0.0002
3758.00,-0.0002
3757.00,-0.0002
3756.00,-0.0001
3755.00,-0.0001
3754.00,-0.0001
3753.00,-0.0001
3752.00,-0.0001
3751.00,-0.0000
3750.00,-0.0000
3749.00,0.0000
3748.00,-0.0000
3747.00,-0.0000
3746.00,-0.0000
3745.00,-0.0000
3744.00,-0.0000
3743.00,-0.0001
3742.00,-0.0001
3741.00,-0.0000
3740.00,-0.0000
3739.00,0.0000
3738.00,0.0000
3737.00,0.0000
3736.00,0.0000
3735.00,-0.0000
3734.00,-0.0000
3733.00,-0.0000
3732.00,-0.0000
3731.00,-0.0000
3730.00,-0.0000
3729.00,-0.0001
3728.00,-0.0001
3727.00,-0.0001
3726.00,-0.0001
3725.00,-0.0001
3724.00,-0.0001
3723.00,-0.0001
3722.00,-0.0001
3721.00,-0.0002
3720.00,-0.0002
3719.00,-0.0002
3718.00,-0.0002
3717.00,-0.0002
3716.00,-0.0002
3715.00,-0.0002
3714.00,-0.0002
3713.00,-0.0002
3712.00,-0.0002
3711.00,-0.0002
3710.00,-0.0002
3709.00,-0.0002
3708.00,-0.0002
3707.00,-0.0002
3706.00,-0.0002
3705.00,-0.0002
3704.00,-0.0002
3703.00,-0.0002
3702.00,-0.0002
3701.00,-0.0002
3700.00,-0.0002
3699.00,-0.0002
3698.00,-0.0002
3697.00,-0.0002
3696.00,-0.0002
3695.00,-0.0002
3694.00,-0.0002
3693.00,-0.0002
3692.00,-0.0001
3691.00,-0.0001
3690.00,-0.0001
3689.00,-0.0001
3688.00,-0.0001
3687.00,-0.0001
3686.00,-0.0001
3685.00,-0.0002
3684.00,-0.0002
3683.00,-0.0002
3682.00,-0.0002
3681.00,-0.0002
3680.00,-0.0001
3679.00,-0.0001
3678.00,-0.0001
3677.00,-0.0001
3676.00,-0.0000
3675.00,-0.0000
3674.00,-0.0000
3673.00,-0.0000
3672.00,-0.0000
3671.00,-0.0001
3670.00,-0.0001
3669.00,-0.0001
3668.00,-0.0001
3667.00,-0.0002
3666.00,-0.0002
3665.00,-0.0002
3664.00,-0.0002
3663.00,-0.0002
3662.00,-0.0002
3661.00,-0.0002
3660.00,-0.0002
3659.00,-0.0002
3658.00,-0.0001
3657.00,-0.0001
3656.00,-0.0001
3655.00,-0.0001
3654.00,-0.0001
3653.00,-0.0000
3652.00,0.0000
3651.00,0.0000
3650.00,0.0001
3649.00,0.0001
3648.00,0.0001
3647.00,0.0001
3646.00,0.0001
3645.00,0.0000
3644.00,0.0000
3643.00,0.0000
3642.00,-0.0000
3641.00,-0.0000
3640.00,-0.0000
3639.00,-0.0000
3638.00,-0.0001
3637.00,-0.0000
3636.00,-0.0000
3635.00,-0.0000
3634.00,-0.0000
3633.00,0.0000
3632.00,0.0000
3631.00,0.0001
3630.00,0.0001
3629.00,0.0001
3628.00,0.0001
3627.00,0.0001
3626.00,0.0001
3625.00,0.0001
3624.00,0.0001
3623.00,0.0001
3622.00,0.0001
3621.00,0.0001
3620.00,0.0001
3619.00,0.0001
3618.00,0.0002
3617.00,0.0002
3616.00,0.0002
3615.00,0.0002
3614.00,0.0002
3613.00,0.0002
3612.00,0.0002
3611.00,0.0002
3610.00,0.0003
3609.00,0.0002
3608.00,0.0002
3607.00,0.0002
3606.00,0.0002
3605.00,0.0002
3604.00,0.0002
3603.00,0.0002
3602.00,0.0002
3601.00,0.0002
3600.00,0.0002
3599.00,0.0003
3598.00,0.0003
3597.00,0.0003
3596.00,0.0003
3595.00,0.0003
3594.00,0.0003
3593.00,0.0003
3592.00,0.0003
3591.00,0.0003
3590.00,0.0003
3589.00,0.0003
3588.00,0.0003
3587.00,0.0003
3586.00,0.0003
3585.00,0.0004
3584.00,0.0004
3583.00,0.0004
3582.00,0.0004
3581.00,0.0004
3580.00,0.0003
3579.00,0.0004
3578.00,0.0004
3577.00,0.0004
3576.00,0.0004
3575.00,0.0004
3574.00,0.0004
3573.00,0.0004
3572.00,0.0004
3571.00,0.0004
3570.00,0.0004
3569.00,0.0005
3568.00,0.0005
3567.00,0.0005
3566.00,0.0005
3565.00,0.0005
3564.00,0.0005
3563.00,0.0005
3562.00,0.0005
3561.00,0.0005
3560.00,0.0005
3559.00,0.0005
3558.00,0.0005
3557.00,0.0005
3556.00,0.0005
3555.00,0.0005
3554.00,0.0005
3553.00,0.0005
3552.00,0.0005
3551.00,0.0006
3550.00,0.0006
3549.00,0.0006
3548.00,0.0007
3547.00,0.0007
3546.00,0.0007
3545.00,0.0007
3544.00,0.0006
3543.00,0.0006
3542.00,0.0006
3541.00,0.0006
3540.00,0.0006
3539.00,0.0006
3538.00,0.0006
3537.00,0.0006
3536.00,0.0007
3535.00,0.0007
3534.00,0.0007
3533.00,0.0007
3532.00,0.0007
3531.00,0.0007
3530.00,0.0008
3529.00,0.0008
3528.00,0.0008
3527.00,0.0008
3526.00,0.0008
3525.00,0.0008
3524.00,0.0008
3523.00,0.0008
3522.00,0.0008
3521.00,0.0008
3520.00,0.0008
3519.00,0.0008
3518.00,0.0008
3517.00,0.0008
3516.00,0.0009
3515.00,0.0009
3514.00,0.0009
3513.00,0.0009
3512.00,0.0009
3511.00,0.0009
3510.00,0.0009
3509.00,0.0009
3508.00,0.0009
3507.00,0.0009
3506.00,0.0010
3505.00,0.0010
3504.00,0.0010
3503.00,0.0010
3502.00,0.0010
3501.00,0.0010
3500.00,0.0010
3499.00,0.0010
3498.00,0.0010
3497.00,0.0010
3496.00,0.0010
3495.00,0.0010
3494.00,0.0010
3493.00,0.0010
3492.00,0.0011
3491.00,0.0011
3490.00,0.0011
3489.00,0.0011
3488.00,0.0011
3487.00,0.0011
3486.00,0.0011
3485.00,0.0011
3484.00,0.0011
3483.00,0.0012
3482.00,0.0012
3481.00,0.0012
3480.00,0.0012
3479.00,0.0012
3478.00,0.0012
3477.00,0.0012
3476.00,0.0012
3475.00,0.0012
3474.00,0.0012
3473.00,0.0012
3472.00,0.0012
3471.00,0.0012
3470.00,0.0012
3469.00,0.0012
3468.00,0.0012
3467.00,0.0012
3466.00,0.0012
3465.00,0.0012
3464.00,0.0013
3463.00,0.0013
3462.00,0.0013
3461.00,0.0013
3460.00,0.0013
3459.00,0.0013
3458.00,0.0013
3457.00,0.0013
3456.00,0.0013
3455.00,0.0013
3454.00,0.0014
3453.00,0.0014
3452.00,0.0014
3451.00,0.0014
3450.00,0.0014
3449.00,0.0014
3448.00,0.0014
3447.00,0.0014
3446.00,0.0014
3445.00,0.0014
3444.00,0.0014
3443.00,0.0014
3442.00,0.0014
3441.00,0.0014
3440.00,0.0015
3439.00,0.0015
3438.00,0.0015
3437.00,0.0015
3436.00,0.0015
3435.00,0.0015
3434.00,0.0015
3433.00,0.0015
3432.00,0.0015
3431.00,0.0015
3430.00,0.0015
3429.00,0.0015
3428.00,0.0015
3427.00,0.0015
3426.00,0.0015
3425.00,0.0015
3424.00,0.0016
3423.00,0.0016
3422.00,0.0016
3421.00,0.0016
3420.00,0.0016
3419.00,0.0016
3418.00,0.0016
3417.00,0.0016
3416.00,0.0016
3415.00,0.0016
3414.00,0.0016
3413.00,0.0016
3412.00,0.0016
3411.00,0.0016
3410.00,0.0016
3409.00,0.0016
3408.00,0.0016
3407.00,0.0016
3406.00,0.0016
3405.00,0.0016
3404.00,0.0016
3403.00,0.0016
3402.00,0.0016
3401.00,0.0016
3400.00,0.0016
3399.00,0.0016
3398.00,0.0017
3397.00,0.0017
3396.00,0.0017
3395.00,0.0017
3394.00,0.0017
3393.00,0.0017
3392.00,0.0017
3391.00,0.0017
3390.00,0.0017
3389.00,0.0017
3388.00,0.0017
3387.00,0.0017
3386.00,0.0017
3385.00,0.0017
3384.00,0.0017
3383.00,0.0017
3382.00,0.0017
3381.00,0.0017
3380.00,0.0017
3379.00,0.0017
3378.00,0.0018
3377.00,0.0018
3376.00,0.0018
3375.00,0.0018
3374.00,0.0018
3373.00,0.0018
3372.00,0.0018
3371.00,0.0018
3370.00,0.0018
3369.00,0.0018
3368.00,0.0018
3367.00,0.0018
3366.00,0.0018
3365.00,0.0018
3364.00,0.0018
3363.00,0.0018
3362.00,0.0018
3361.00,0.0018
3360.00,0.0018
3359.00,0.0018
3358.00,0.0018
3357.00,0.0018
3356.00,0.0018
3355.00,0.0018
3354.00,0.0018
3353.00,0.0018
3352.00,0.0018
3351.00,0.0018
3350.00,0.0018
3349.00,0.0018
3348.00,0.0018
3347.00,0.0018
3346.00,0.0018
3345.00,0.0018
3344.00,0.0018
3343.00,0.0018
3342.00,0.0018
3341.00,0.0018
3340.00,0.0018
3339.00,0.0018
3338.00,0.0018
3337.00,0.0018
3336.00,0.0018
3335.00,0.0018
3334.00,0.0018
3333.00,0.0018
3332.00,0.0018
3331.00,0.0018
3330.00,0.0018
3329.00,0.0018
3328.00,0.0018
3327.00,0.0018
3326.00,0.0018
3325.00,0.0018
3324.00,0.0018
3323.00,0.0018
3322.00,0.0018
3321.00,0.0018
3320.00,0.0018
3319.00,0.0018
3318.00,0.0018
3317.00,0.0018
3316.00,0.0018
3315.00,0.0018
3314.00,0.0018
3313.00,0.0018
3312.00,0.0018
3311.00,0.0018
3310.00,0.0018
3309.00,0.0018
3308.00,0.0018
3307.00,0.0018
3306.00,0.0018
3305.00,0.0019
3304.00,0.0019
3303.00,0.0019
3302.00,0.0019
3301.00,0.0019
3300.00,0.0019
3299.00,0.0019
3298.00,0.0019
3297.00,0.0019
3296.00,0.0019
3295.00,0.0019
3294.00,0.0019
3293.00,0.0019
3292.00,0.0019
3291.00,0.0019
3290.00,0.0019
3289.00,0.0019
3288.00,0.0019
3287.00,0.0019
3286.00,0.0019
3285.00,0.0019
3284.00,0.0019
3283.00,0.0018
3282.00,0.0018
3281.00,0.0018
3280.00,0.0018
3279.00,0.0018
3278.00,0.0018
3277.00,0.0019
3276.00,0.0019
3275.00,0.0019
3274.00,0.0019
3273.00,0.0018
3272.00,0.0018
3271.00,0.0018
3270.00,0.0018
3269.00,0.0018
3268.00,0.0018
3267.00,0.0018
3266.00,0.0018
3265.00,0.0018
3264.00,0.0018
3263.00,0.0018
3262.00,0.0018
3261.00,0.0018
3260.00,0.0018
3259.00,0.0018
3258.00,0.0018
3257.00,0.0018
3256.00,0.0018
3255.00,0.0017
3254.00,0.0017
3253.00,0.0017
3252.00,0.0017
3251.00,0.0017
3250.00,0.0017
3249.00,0.0017
3248.00,0.0017
3247.00,0.0017
3246.00,0.0017
3245.00,0.0017
3244.00,0.0017
3243.00,0.0017
3242.00,0.0017
3241.00,0.0017
3240.00,0.0017
3239.00,0.0017
3238.00,0.0017
3237.00,0.0017
3236.00,0.0017
3235.00,0.0016
3234.00,0.0016
3233.00,0.0016
3232.00,0.0016
3231.00,0.0017
3230.00,0.0016
3229.00,0.0016
3228.00,0.0016
3227.00,0.0016
3226.00,0.0016
3225.00,0.0016
3224.00,0.0016
3223.00,0.0016
3222.00,0.0016
3221.00,0.0016
3220.00,0.0016
3219.00,0.0016
3218.00,0.0016
3217.00,0.0016
3216.00,0.0016
3215.00,0.0016
3214.00,0.0016
3213.00,0.0016
3212.00,0.0016
3211.00,0.0016
3210.00,0.0015
3209.00,0.0015
3208.00,0.0015
3207.00,0.0015
3206.00,0.0015
3205.00,0.0015
3204.00,0.0015
3203.00,0.0015
3202.00,0.0015
3201.00,0.0015
3200.00,0.0015
3199.00,0.0015
3198.00,0.0015
3197.00,0.0015
3196.00,0.0015
3195.00,0.0015
3194.00,0.0015
3193.00,0.0015
3192.00,0.0015
3191.00,0.0015
3190.00,0.0015
3189.00,0.0014
3188.00,0.0014
3187.00,0.0014
3186.00,0.0014
3185.00,0.0014
3184.00,0.0014
3183.00,0.0014
3182.00,0.0014
3181.00,0.0014
3180.00,0.0014
3179.00,0.0014
3178.00,0.0014
3177.00,0.0014
3176.00,0.0014
3175.00,0.0014
3174.00,0.0014
3173.00,0.0014
3172.00,0.0014
3171.00,0.0014
3170.00,0.0014
3169.00,0.0014
3168.00,0.0013
3167.00,0.0013
3166.00,0.0013
3165.00,0.0013
3164.00,0.0013
3163.00,0.0013
3162.00,0.0013
3161.00,0.0013
3160.00,0.0013
3159.00,0.0013
3158.00,0.0013
3157.00,0.0013
3156.00,0.0013
3155.00,0.0013
3154.00,0.0013
3153.00,0.0012
3152.00,0.0012
3151.00,0.0012
3150.00,0.0012
3149.00,0.0012
3148.00,0.0012
3147.00,0.0012
3146.00,0.0012
3145.00,0.0012
3144.00,0.0012
3143.00,0.0012
3142.00,0.0012
3141.00,0.0012
3140.00,0.0012
3139.00,0.0012
3138.00,0.0012
3137.00,0.0012
3136.00,0.0012
3135.00,0.0012
3134.00,0.0012
3133.00,0.0012
3132.00,0.0012
3131.00,0.0012
3130.00,0.0011
3129.00,0.0011
3128.00,0.0011
3127.00,0.0011
3126.00,0.0011
3125.00,0.0011
3124.00,0.0011
3123.00,0.0011
3122.00,0.0011
3121.00,0.0011
3120.00,0.0011
3119.00,0.0011
3118.00,0.0011
3117.00,0.0011
3116.00,0.0011
3115.00,0.0011
3114.00,0.0011
3113.00,0.0011
3112.00,0.0011
3111.00,0.0010
3110.00,0.0010
3109.00,0.0010
3108.00,0.0010
3107.00,0.0010
3106.00,0.0011
3105.00,0.0011
3104.00,0.0011
3103.00,0.0010
3102.00,0.0010
3101.00,0.0010
3100.00,0.0010
3099.00,0.0011
3098.00,0.0011
3097.00,0.0011
3096.00,0.0010
3095.00,0.0010
3094.00,0.0010
3093.00,0.0010
3092.00,0.0010
3091.00,0.0010
3090.00,0.0010
3089.00,0.0010
3088.00,0.0010
3087.00,0.0010
3086.00,0.0010
3085.00,0.0010
3084.00,0.0010
3083.00,0.0010
3082.00,0.0010
3081.00,0.0010
3080.00,0.0010
3079.00,0.0010
3078.00,0.0010
3077.00,0.0010
3076.00,0.0010
3075.00,0.0010
3074.00,0.0010
3073.00,0.0010
3072.00,0.0010
3071.00,0.0010
3070.00,0.0010
3069.00,0.0010
3068.00,0.0010
3067.00,0.0010
3066.00,0.0010
3065.00,0.0010
3064.00,0.0010
3063.00,0.0009
3062.00,0.0009
3061.00,0.0009
3060.00,0.0009
3059.00,0.0010
3058.00,0.0010
3057.00,0.0009
3056.00,0.0009
3055.00,0.0009
3054.00,0.0009
3053.00,0.0009
3052.00,0.0009
3051.00,0.0009
3050.00,0.0009
3049.00,0.0009
3048.00,0.0009
3047.00,0.0009
3046.00,0.0009
3045.00,0.0009
3044.00,0.0009
3043.00,0.0008
3042.00,0.0008
3041.00,0.0008
3040.00,0.0008
3039.00,0.0008
3038.00,0.0008
3037.00,0.0008
3036.00,0.0008
3035.00,0.0008
3034.00,0.0008
3033.00,0.0008
3032.00,0.0008
3031.00,0.0008
3030.00,0.0008
3029.00,0.0008
3028.00,0.0008
3027.00,0.0008
3026.00,0.0008
3025.00,0.0008
3024.00,0.0008
3023.00,0.0007
3022.00,0.0007
3021.00,0.0007
3020.00,0.0007
3019.00,0.0007
3018.00,0.0007
3017.00,0.0007
3016.00,0.0007
3015.00,0.0007
3014.00,0.0007
3013.00,0.0007
3012.00,0.0007
3011.00,0.0007
3010.00,0.0007
3009.00,0.0007
3008.00,0.0007
3007.00,0.0007
3006.00,0.0007
3005.00,0.0007
3004.00,0.0007
3003.00,0.0007
3002.00,0.0007
3001.00,0.0007
3000.00,0.0007
2999.00,0.0007
2998.00,0.0007
2997.00,0.0007
2996.00,0.0007
2995.00,0.0007
2994.00,0.0007
2993.00,0.0007
2992.00,0.0007
2991.00,0.0006
2990.00,0.0006
2989.00,0.0006
2988.00,0.0006
2987.00,0.0006
2986.00,0.0006
2985.00,0.0006
2984.00,0.0006
2983.00,0.0006
2982.00,0.0006
2981.00,0.0006
2980.00,0.0006
2979.00,0.0006
2978.00,0.0006
2977.00,0.0006
2976.00,0.0006
2975.00,0.0006
2974.00,0.0006
2973.00,0.0006
2972.00,0.0006
2971.00,0.0005
2970.00,0.0005
2969.00,0.0005
2968.00,0.0005
2967.00,0.0004
2966.00,0.0004
2965.00,0.0004
2964.00,0.0003
2963.00,0.0003
2962.00,0.0002
2961.00,0.0002
2960.00,0.0001
2959.00,0.0001
2958.00,0.0001
2957.00,0.0001
2956.00,0.0001
2955.00,0.0001
2954.00,0.0002
2953.00,0.0002
2952.00,0.0002
2951.00,0.0003
2950.00,0.0003
2949.00,0.0003
2948.00,0.0003
2947.00,0.0003
2946.00,0.0003
2945.00,0.0003
2944.00,0.0003
2943.00,0.0003
2942.00,0.0003
2941.00,0.0003
2940.00,0.0003
2939.00,0.0002
2938.00,0.0001
2937.00,0.0001
2936.00,0.0000
2935.00,-0.0000
2934.00,-0.0001
2933.00,-0.0002
2932.00,-0.0003
2931.00,-0.0004
2930.00,-0.0006
2929.00,-0.0007
2928.00,-0.0009
2927.00,-0.0011
2926.00,-0.0014
2925.00,-0.0017
2924.00,-0.0020
2923.00,-0.0024
2922.00,-0.0028
2921.00,-0.0032
2920.00,-0.0037
2919.00,-0.0041
2918.00,-0.0045
2917.00,-0.0047
2916.00,-0.0047
2915.00,-0.0044
2914.00,-0.0039
2913.00,-0.0033
2912.00,-0.0027
2911.00,-0.0021
2910.00,-0.0017
2909.00,-0.0014
2908.00,-0.0011
2907.00,-0.0010
2906.00,-0.0008
2905.00,-0.0007
2904.00,-0.0007
2903.00,-0.0006
2902.00,-0.0006
2901.00,-0.0005
2900.00,-0.0005
2899.00,-0.0004
2898.00,-0.0004
2897.00,-0.0004
2896.00,-0.0003
2895.00,-0.0003
2894.00,-0.0003
2893.00,-0.0003
2892.00,-0.0002
2891.00,-0.0002
2890.00,-0.0002
2889.00,-0.0001
2888.00,-0.0001
2887.00,-0.0001
2886.00,-0.0001
2885.00,-0.0000
2884.00,0.0000
2883.00,0.0000
2882.00,0.0001
2881.00,0.0001
2880.00,0.0001
2879.00,0.0001
2878.00,0.0001
2877.00,0.0001
2876.00,0.0001
2875.00,0.0001
2874.00,0.0001
2873.00,0.0001
2872.00,0.0001
2871.00,0.0001
2870.00,0.0001
2869.00,0.0001
2868.00,0.0001
2867.00,0.0001
2866.00,0.0001
2865.00,0.0000
2864.00,0.0000
2863.00,-0.0000
2862.00,-0.0001
2861.00,-0.0001
2860.00,-0.0002
2859.00,-0.0003
2858.00,-0.0004
2857.00,-0.0006
2856.00,-0.0007
2855.00,-0.0010
2854.00,-0.0013
2853.00,-0.0018
2852.00,-0.0023
2851.00,-0.0027
2850.00,-0.0031
2849.00,-0.0033
2848.00,-0.0031
2847.00,-0.0026
2846.00,-0.0021
2845.00,-0.0015
2844.00,-0.0010
2843.00,-0.0007
2842.00,-0.0004
2841.00,-0.0002
2840.00,-0.0001
2839.00,-0.0000
2838.00,0.0000
2837.00,0.0001
2836.00,0.0001
2835.00,0.0002
2834.00,0.0002
2833.00,0.0002
2832.00,0.0002
2831.00,0.0002
2830.00,0.0002
2829.00,0.0003
2828.00,0.0003
2827.00,0.0003
2826.00,0.0003
2825.00,0.0003
2824.00,0.0003
2823.00,0.0003
2822.00,0.0003
2821.00,0.0003
2820.00,0.0003
2819.00,0.0003
2818.00,0.0003
2817.00,0.0003
2816.00,0.0003
2815.00,0.0003
2814.00,0.0003
2813.00,0.0003
2812.00,0.0003
2811.00,0.0003
2810.00,0.0003
2809.00,0.0003
2808.00,0.0003
2807.00,0.0003
2806.00,0.0003
2805.00,0.0003
2804.00,0.0003
2803.00,0.0003
2802.00,0.0003
2801.00,0.0003
2800.00,0.0003
2799.00,0.0003
2798.00,0.0003
2797.00,0.0003
2796.00,0.0003
2795.00,0.0003
2794.00,0.0003
2793.00,0.0003
2792.00,0.0003
2791.00,0.0003
2790.00,0.0003
2789.00,0.0003
2788.00,0.0003
2787.00,0.0003
2786.00,0.0003
2785.00,0.0003
2784.00,0.0003
2783.00,0.0003
2782.00,0.0003
2781.00,0.0003
2780.00,0.0003
2779.00,0.0003
2778.00,0.0003
2777.00,0.0003
2776.00,0.0003
2775.00,0.0003
2774.00,0.0003
2773.00,0.0003
2772.00,0.0003
2771.00,0.0003
2770.00,0.0003
2769.00,0.0003
2768.00,0.0003
2767.00,0.0003
2766.00,0.0003
2765.00,0.0003
2764.00,0.0003
2763.00,0.0003
2762.00,0.0003
2761.00,0.0003
2760.00,0.0003
2759.00,0.0003
2758.00,0.0003
2757.00,0.0003
2756.00,0.0003
2755.00,0.0003
2754.00,0.0003
2753.00,0.0003
2752.00,0.0003
2751.00,0.0003
2750.00,0.0003
2749.00,0.0003
2748.00,0.0003
2747.00,0.0002
2746.00,0.0002
2745.00,0.0002
2744.00,0.0003
2743.00,0.0003
2742.00,0.0003
2741.00,0.0003
2740.00,0.0003
2739.00,0.0003
2738.00,0.0003
2737.00,0.0003
2736.00,0.0003
2735.00,0.0003
2734.00,0.0003
2733.00,0.0003
2732.00,0.0003
2731.00,0.0003
2730.00,0.0003
2729.00,0.0003
2728.00,0.0003
2727.00,0.0003
2726.00,0.0003
2725.00,0.0003
2724.00,0.0003
2723.00,0.0002
2722.00,0.0002
2721.00,0.0003
2720.00,0.0003
2719.00,0.0003
2718.00,0.0003
2717.00,0.0002
2716.00,0.0002
2715.00,0.0002
2714.00,0.0002
2713.00,0.0003
2712.00,0.0003
2711.00,0.0003
2710.00,0.0003
2709.00,0.0003
2708.00,0.0003
2707.00,0.0003
2706.00,0.0003
2705.00,0.0002
2704.00,0.0002
2703.00,0.0002
2702.00,0.0002
2701.00,0.0002
2700.00,0.0002
2699.00,0.0002
2698.00,0.0002
2697.00,0.0002
2696.00,0.0002
2695.00,0.0002
2694.00,0.0002
2693.00,0.0002
2692.00,0.0002
2691.00,0.0003
2690.00,0.0003
2689.00,0.0002
2688.00,0.0002
2687.00,0.0002
2686.00,0.0002
2685.00,0.0002
2684.00,0.0002
2683.00,0.0002
2682.00,0.0002
2681.00,0.0002
2680.00,0.0002
2679.00,0.0002
2678.00,0.0002
2677.00,0.0002
2676.00,0.0002
2675.00,0.0002
2674.00,0.0002
2673.00,0.0002
2672.00,0.0002
2671.00,0.0002
2670.00,0.0002
2669.00,0.0002
2668.00,0.0002
2667.00,0.0002
2666.00,0.0002
2665.00,0.0002
2664.00,0.0002
2663.00,0.0002
2662.00,0.0002
2661.00,0.0002
2660.00,0.0002
2659.00,0.0002
2658.00,0.0002
2657.00,0.0002
2656.00,0.0002
2655.00,0.0002
2654.00,0.0002
2653.00,0.0002
2652.00,0.0002
2651.00,0.0002
2650.00,0.0002
2649.00,0.0002
2648.00,0.0002
2647.00,0.0002
2646.00,0.0002
2645.00,0.0002
2644.00,0.0002
2643.00,0.0002
2642.00,0.0002
2641.00,0.0002
2640.00,0.0002
2639.00,0.0001
2638.00,0.0001
2637.00,0.0001
2636.00,0.0002
2635.00,0.0002
2634.00,0.0002
2633.00,0.0002
2632.00,0.0002
2631.00,0.0002
2630.00,0.0002
2629.00,0.0002
2628.00,0.0002
2627.00,0.0002
2626.00,0.0002
2625.00,0.0002
2624.00,0.0002
2623.00,0.0002
2622.00,0.0002
2621.00,0.0002
2620.00,0.0002
2619.00,0.0002
2618.00,0.0002
2617.00,0.0002
2616.00,0.0002
2615.00,0.0002
2614.00,0.0002
2613.00,0.0002
2612.00,0.0002
2611.00,0.0002
2610.00,0.0002
2609.00,0.0002
2608.00,0.0002
2607.00,0.0002
2606.00,0.0002
2605.00,0.0002
2604.00,0.0002
2603.00,0.0002
2602.00,0.0002
2601.00,0.0002
2600.00,0.0002
2599.00,0.0002
2598.00,0.0002
2597.00,0.0002
2596.00,0.0002
2595.00,0.0002
2594.00,0.0002
2593.00,0.0002
2592.00,0.0002
2591.00,0.0002
2590.00,0.0002
2589.00,0.0002
2588.00,0.0002
2587.00,0.0002
2586.00,0.0002
2585.00,0.0002
2584.00,0.0002
2583.00,0.0002
2582.00,0.0002
2581.00,0.0002
2580.00,0.0002
2579.00,0.0002
2578.00,0.0002
2577.00,0.0002
2576.00,0.0002
2575.00,0.0002
2574.00,0.0002
2573.00,0.0002
2572.00,0.0002
2571.00,0.0002
2570.00,0.0002
2569.00,0.0002
2568.00,0.0002
2567.00,0.0002
2566.00,0.0002
2565.00,0.0002
2564.00,0.0002
2563.00,0.0002
2562.00,0.0002
2561.00,0.0002
2560.00,0.0002
2559.00,0.0002
2558.00,0.0002
2557.00,0.0002
2556.00,0.0002
2555.00,0.0002
2554.00,0.0002
2553.00,0.0002
2552.00,0.0002
2551.00,0.0002
2550.00,0.0002
2549.00,0.0002
2548.00,0.0002
2547.00,0.0002
2546.00,0.0002
2545.00,0.0002
2544.00,0.0002
2543.00,0.0002
2542.00,0.0002
2541.00,0.0002
2540.00,0.0002
2539.00,0.0002
2538.00,0.0002
2537.00,0.0002
2536.00,0.0002
2535.00,0.0002
2534.00,0.0002
2533.00,0.0002
2532.00,0.0002
2531.00,0.0002
2530.00,0.0002
2529.00,0.0002
2528.00,0.0002
2527.00,0.0002
2526.00,0.0002
2525.00,0.0003
2524.00,0.0003
2523.00,0.0002
2522.00,0.0002
2521.00,0.0002
2520.00,0.0002
2519.00,0.0003
2518.00,0.0003
2517.00,0.0003
2516.00,0.0002
2515.00,0.0002
2514.00,0.0002
2513.00,0.0002
2512.00,0.0002
2511.00,0.0002
2510.00,0.0002
2509.00,0.0002
2508.00,0.0002
2507.00,0.0002
2506.00,0.0002
2505.00,0.0002
2504.00,0.0002
2503.00,0.0002
2502.00,0.0002
2501.00,0.0002
2500.00,0.0002
2499.00,0.0002
2498.00,0.0002
2497.00,0.0002
2496.00,0.0002
2495.00,0.0002
2494.00,0.0002
2493.00,0.0002
2492.00,0.0002
2491.00,0.0002
2490.00,0.0002
2489.00,0.0002
2488.00,0.0002
2487.00,0.0002
2486.00,0.0002
2485.00,0.0002
2484.00,0.0002
2483.00,0.0002
2482.00,0.0002
2481.00,0.0002
2480.00,0.0002
2479.00,0.0002
2478.00,0.0002
2477.00,0.0002
2476.00,0.0002
2475.00,0.0002
2474.00,0.0002
2473.00,0.0002
2472.00,0.0002
2471.00,0.0002
2470.00,0.0002
2469.00,0.0002
2468.00,0.0002
2467.00,0.0002
2466.00,0.0002
2465.00,0.0002
2464.00,0.0002
2463.00,0.0002
2462.00,0.0002
2461.00,0.0002
2460.00,0.0002
2459.00,0.0002
2458.00,0.0001
2457.00,0.0002
2456.00,0.0002
2455.00,0.0002
2454.00,0.0002
2453.00,0.0002
2452.00,0.0002
2451.00,0.0002
2450.00,0.0002
2449.00,0.0002
2448.00,0.0002
2447.00,0.0002
2446.00,0.0002
2445.00,0.0002
2444.00,0.0002
2443.00,0.0002
2442.00,0.0002
2441.00,0.0002
2440.00,0.0002
2439.00,0.0002
2438.00,0.0002
2437.00,0.0002
2436.00,0.0002
2435.00,0.0002
2434.00,0.0002
2433.00,0.0002
2432.00,0.0002
2431.00,0.0002
2430.00,0.0002
2429.00,0.0002
2428.00,0.0002
2427.00,0.0002
2426.00,0.0002
2425.00,0.0002
2424.00,0.0002
2423.00,0.0002
2422.00,0.0002
2421.00,0.0002
2420.00,0.0002
2419.00,0.0002
2418.00,0.0002
2417.00,0.0002
2416.00,0.0002
2415.00,0.0002
2414.00,0.0002
2413.00,0.0002
2412.00,0.0002
2411.00,0.0002
2410.00,0.0002
2409.00,0.0002
2408.00,0.0002
2407.00,0.0002
2406.00,0.0002
2405.00,0.0002
2404.00,0.0002
2403.00,0.0002
2402.00,0.0002
2401.00,0.0002
2400.00,0.0002
2399.00,0.0002
2398.00,0.0002
2397.00,0.0002
2396.00,0.0002
2395.00,0.0002
2394.00,0.0002
2393.00,0.0002
2392.00,0.0002
2391.00,0.0002
2390.00,0.0002
2389.00,0.0002
2388.00,0.0002
2387.00,0.0002
2386.00,0.0002
2385.00,0.0002
2384.00,0.0002
2383.00,0.0002
2382.00,0.0002
2381.00,0.0002
2380.00,0.0002
2379.00,0.0003
2378.00,0.0003
2377.00,0.0002
2376.00,0.0002
2375.00,0.0002
2374.00,0.0002
2373.00,0.0002
2372.00,0.0003
2371.00,0.0003
2370.00,0.0003
2369.00,0.0003
2368.00,0.0003
2367.00,0.0002
2366.00,0.0002
2365.00,0.0002
2364.00,0.0002
2363.00,0.0002
2362.00,0.0002
2361.00,0.0002
2360.00,0.0002
2359.00,0.0002
2358.00,0.0002
2357.00,0.0002
2356.00,0.0002
2355.00,0.0002
2354.00,0.0002
2353.00,0.0002
2352.00,0.0002
2351.00,0.0002
2350.00,0.0002
2349.00,0.0002
2348.00,0.0002
2347.00,0.0001
2346.00,0.0001
2345.00,0.0002
2344.00,0.0002
2343.00,0.0002
2342.00,0.0002
2341.00,0.0002
2340.00,0.0002
2339.00,0.0002
2338.00,0.0002
2337.00,0.0002
2336.00,0.0002
2335.00,0.0002
2334.00,0.0002
2333.00,0.0002
2332.00,0.0002
2331.00,0.0002
2330.00,0.0002
2329.00,0.0002
2328.00,0.0002
2327.00,0.0002
2326.00,0.0002
2325.00,0.0002
2324.00,0.0002
2323.00,0.0002
2322.00,0.0002
2321.00,0.0002
2320.00,0.0002
2319.00,0.0002
2318.00,0.0002
2317.00,0.0002
2316.00,0.0002
2315.00,0.0002
2314.00,0.0002
2313.00,0.0002
2312.00,0.0002
2311.00,0.0003
2310.00,0.0003
2309.00,0.0002
2308.00,0.0002
2307.00,0.0002
2306.00,0.0003
2305.00,0.0003
2304.00,0.0003
2303.00,0.0002
2302.00,0.0002
2301.00,0.0002
2300.00,0.0002
2299.00,0.0002
2298.00,0.0002
2297.00,0.0002
2296.00,0.0002
2295.00,0.0002
2294.00,0.0002
2293.00,0.0002
2292.00,0.0002
2291.00,0.0002
2290.00,0.0002
2289.00,0.0002
2288.00,0.0002
2287.00,0.0002
2286.00,0.0001
2285.00,0.0001
2284.00,0.0002
2283.00,0.0002
2282.00,0.0002
2281.00,0.0002
2280.00,0.0002
2279.00,0.0002
2278.00,0.0002
2277.00,0.0003
2276.00,0.0003
2275.00,0.0003
2274.00,0.0002
2273.00,0.0002
2272.00,0.0002
2271.00,0.0002
2270.00,0.0003
2269.00,0.0003
2268.00,0.0003
2267.00,0.0003
2266.00,0.0003
2265.00,0.0003
2264.00,0.0003
2263.00,0.0003
2262.00,0.0003
2261.00,0.0003
2260.00,0.0002
2259.00,0.0002
2258.00,0.0002
2257.00,0.0002
2256.00,0.0002
2255.00,0.0002
2254.00,0.0002
2253.00,0.0002
2252.00,0.0002
2251.00,0.0002
2250.00,0.0002
2249.00,0.0003
2248.00,0.0003
2247.00,0.0002
2246.00,0.0002
2245.00,0.0002
2244.00,0.0002
2243.00,0.0001
2242.00,0.0001
2241.00,0.0001
2240.00,0.0002
2239.00,0.0002
2238.00,0.0002
2237.00,0.0002
2236.00,0.0003
2235.00,0.0003
2234.00,0.0003
2233.00,0.0003
2232.00,0.0003
2231.00,0.0003
2230.00,0.0003
2229.00,0.0003
2228.00,0.0002
2227.00,0.0002
2226.00,0.0002
2225.00,0.0002
2224.00,0.0002
2223.00,0.0002
2222.00,0.0003
2221.00,0.0002
2220.00,0.0002
2219.00,0.0002
2218.00,0.0002
2217.00,0.0003
2216.00,0.0003
2215.00,0.0004
2214.00,0.0004
2213.00,0.0004
2212.00,0.0003
2211.00,0.0003
2210.00,0.0003
2209.00,0.0003
2208.00,0.0003
2207.00,0.0003
2206.00,0.0003
2205.00,0.0003
2204.00,0.0003
2203.00,0.0003
2202.00,0.0003
2201.00,0.0003
2200.00,0.0002
2199.00,0.0002
2198.00,0.0003
2197.00,0.0003
2196.00,0.0003
2195.00,0.0004
2194.00,0.0004
2193.00,0.0004
2192.00,0.0003
2191.00,0.0003
2190.00,0.0003
2189.00,0.0003
2188.00,0.0004
2187.00,0.0004
2186.00,0.0004
2185.00,0.0003
2184.00,0.0002
2183.00,0.0002
2182.00,0.0003
2181.00,0.0003
2180.00,0.0003
2179.00,0.0003
2178.00,0.0003
2177.00,0.0003
2176.00,0.0003
2175.00,0.0003
2174.00,0.0003
2173.00,0.0003
2172.00,0.0003
2171.00,0.0003
2170.00,0.0002
2169.00,0.0002
2168.00,0.0002
2167.00,0.0002
2166.00,0.0003
2165.00,0.0003
2164.00,0.0004
2163.00,0.0004
2162.00,0.0003
2161.00,0.0002
2160.00,0.0001
2159.00,0.0001
2158.00,0.0001
2157.00,0.0002
2156.00,0.0003
2155.00,0.0004
2154.00,0.0004
2153.00,0.0004
2152.00,0.0004
2151.00,0.0004
2150.00,0.0004
2149.00,0.0004
2148.00,0.0004
2147.00,0.0004
2146.00,0.0005
2145.00,0.0005
2144.00,0.0005
2143.00,0.0004
2142.00,0.0004
2141.00,0.0004
2140.00,0.0004
2139.00,0.0005
2138.00,0.0005
2137.00,0.0004
2136.00,0.0004
2135.00,0.0004
2134.00,0.0003
2133.00,0.0003
2132.00,0.0003
2131.00,0.0003
2130.00,0.0002
2129.00,0.0002
2128.00,0.0002
2127.00,0.0002
2126.00,0.0002
2125.00,0.0002
2124.00,0.0002
2123.00,0.0002
2122.00,0.0003
2121.00,0.0003
2120.00,0.0003
2119.00,0.0003
2118.00,0.0003
2117.00,0.0002
2116.00,0.0002
2115.00,0.0002
2114.00,0.0002
2113.00,0.0002
2112.00,0.0002
2111.00,0.0002
2110.00,0.0002
2109.00,0.0002
2108.00,0.0002
2107.00,0.0002
2106.00,0.0002
2105.00,0.0003
2104.00,0.0003
2103.00,0.0002
2102.00,0.0002
2101.00,0.0002
2100.00,0.0002
2099.00,0.0002
2098.00,0.0002
2097.00,0.0002
2096.00,0.0001
2095.00,0.0001
2094.00,0.0001
2093.00,0.0002
2092.00,0.0002
2091.00,0.0002
2090.00,0.0002
2089.00,0.0002
2088.00,0.0002
2087.00,0.0002
2086.00,0.0002
2085.00,0.0002
2084.00,0.0002
2083.00,0.0002
2082.00,0.0002
2081.00,0.0002
2080.00,0.0002
2079.00,0.0002
2078.00,0.0002
2077.00,0.0002
2076.00,0.0002
2075.00,0.0002
2074.00,0.0002
2073.00,0.0002
2072.00,0.0002
2071.00,0.0002
2070.00,0.0002
2069.00,0.0002
2068.00,0.0002
2067.00,0.0002
2066.00,0.0002
2065.00,0.0002
2064.00,0.0002
2063.00,0.0002
2062.00,0.0002
2061.00,0.0002
2060.00,0.0002
2059.00,0.0003
2058.00,0.0003
2057.00,0.0003
2056.00,0.0002
2055.00,0.0002
2054.00,0.0002
2053.00,0.0001
2052.00,0.0001
2051.00,0.0001
2050.00,0.0002
2049.00,0.0002
2048.00,0.0002
2047.00,0.0002
2046.00,0.0002
2045.00,0.0002
2044.00,0.0002
2043.00,0.0003
2042.00,0.0003
2041.00,0.0003
2040.00,0.0002
2039.00,0.0001
2038.00,0.0001
2037.00,0.0001
2036.00,0.0001
2035.00,0.0001
2034.00,0.0002
2033.00,0.0001
2032.00,0.0001
2031.00,0.0001
2030.00,0.0001
2029.00,0.0002
2028.00,0.0001
2027.00,0.0001
2026.00,0.0000
2025.00,-0.0000
2024.00,0.0000
2023.00,0.0001
2022.00,0.0002
2021.00,0.0002
2020.00,0.0002
2019.00,0.0001
2018.00,0.0001
2017.00,0.0001
2016.00,0.0001
2015.00,0.0002
2014.00,0.0003
2013.00,0.0004
2012.00,0.0004
2011.00,0.0003
2010.00,0.0002
2009.00,0.0001
2008.00,0.0001
2007.00,0.0001
2006.00,0.0001
2005.00,0.0002
2004.00,0.0002
2003.00,0.0002
2002.00,0.0002
2001.00,0.0002
2000.00,0.0002
1999.00,0.0002
1998.00,0.0002
1997.00,0.0002
1996.00,0.0002
1995.00,0.0002
1994.00,0.0002
1993.00,0.0001
1992.00,0.0001
1991.00,0.0000
1990.00,0.0000
1989.00,0.0000
1988.00,0.0001
1987.00,0.0001
1986.00,0.0001
1985.00,0.0001
1984.00,0.0001
1983.00,0.0001
1982.00,0.0001
1981.00,0.0001
1980.00,0.0002
1979.00,0.0002
1978.00,0.0002
1977.00,0.0001
1976.00,0.0001
1975.00,0.0001
1974.00,0.0001
1973.00,0.0002
1972.00,0.0002
1971.00,0.0002
1970.00,0.0003
1969.00,0.0003
1968.00,0.0003
1967.00,0.0002
1966.00,0.0002
1965.00,0.0002
1964.00,0.0002
1963.00,0.0002
1962.00,0.0002
1961.00,0.0003
1960.00,0.0003
1959.00,0.0003
1958.00,0.0002
1957.00,0.0001
1956.00,0.0001
1955.00,0.0001
1954.00,0.0001
1953.00,0.0001
1952.00,0.0001
1951.00,0.0001
1950.00,0.0002
1949.00,0.0002
1948.00,0.0002
1947.00,0.0002
1946.00,0.0002
1945.00,0.0001
1944.00,0.0001
1943.00,0.0001
1942.00,0.0001
1941.00,0.0001
1940.00,0.0001
1939.00,0.0001
1938.00,0.0002
1937.00,0.0002
1936.00,0.0001
1935.00,0.0001
1934.00,0.0001
1933.00,0.0001
1932.00,0.0001
1931.00,0.0001
1930.00,0.0001
1929.00,0.0002
1928.00,0.0002
1927.00,0.0002
1926.00,0.0002
1925.00,0.0002
1924.00,0.0002
1923.00,0.0002
1922.00,0.0002
1921.00,0.0002
1920.00,0.0002
1919.00,0.0002
1918.00,0.0001
1917.00,0.0001
1916.00,0.0001
1915.00,0.0001
1914.00,0.0001
1913.00,0.0001
1912.00,0.0001
1911.00,0.0001
1910.00,0.0001
1909.00,0.0001
1908.00,0.0001
1907.00,0.0001
1906.00,0.0001
1905.00,0.0001
1904.00,0.0001
1903.00,0.0001
1902.00,0.0001
1901.00,0.0001
1900.00,0.0001
1899.00,0.0001
1898.00,0.0001
1897.00,0.0000
1896.00,0.0000
1895.00,0.0000
1894.00,0.0000
1893.00,0.0000
1892.00,0.0000
1891.00,0.0001
1890.00,0.0001
1889.00,0.0001
1888.00,0.0001
1887.00,0.0001
1886.00,0.0001
1885.00,0.0001
1884.00,0.0001
1883.00,0.0001
1882.00,0.0001
1881.00,0.0001
1880.00,0.0001
1879.00,0.0001
1878.00,0.0001
1877.00,0.0001
1876.00,0.0001
1875.00,0.0000
1874.00,0.0001
1873.00,0.0001
1872.00,0.0001
1871.00,0.0001
1870.00,0.0001
1869.00,0.0001
1868.00,0.0001
1867.00,0.0001
1866.00,0.0001
1865.00,0.0001
1864.00,0.0001
1863.00,0.0001
1862.00,0.0001
1861.00,0.0001
1860.00,0.0001
1859.00,0.0000
1858.00,0.0000
1857.00,0.0000
1856.00,0.0000
1855.00,0.0000
1854.00,0.0001
1853.00,0.0001
1852.00,0.0001
1851.00,0.0001
1850.00,0.0001
1849.00,0.0001
1848.00,0.0001
1847.00,0.0001
1846.00,0.0001
1845.00,0.0001
1844.00,0.0001
1843.00,0.0001
1842.00,0.0001
1841.00,0.0001
1840.00,0.0001
1839.00,0.0001
1838.00,0.0001
1837.00,0.0001
1836.00,0.0001
1835.00,0.0001
1834.00,0.0001
1833.00,0.0001
1832.00,0.0001
1831.00,0.0001
1830.00,0.0000
1829.00,0.0000
1828.00,0.0000
1827.00,0.0000
1826.00,0.0000
1825.00,0.0000
1824.00,0.0000
1823.00,0.0000
1822.00,0.0001
1821.00,0.0001
1820.00,0.0001
1819.00,0.0001
1818.00,0.0001
1817.00,0.0001
1816.00,0.0000
1815.00,0.0000
1814.00,0.0000
1813.00,0.0000
1812.00,0.0000
1811.00,0.0000
1810.00,0.0000
1809.00,0.0000
1808.00,0.0000
1807.00,0.0000
1806.00,0.0000
1805.00,0.0000
1804.00,0.0000
1803.00,0.0000
1802.00,0.0000
1801.00,0.0000
1800.00,0.0000
1799.00,0.0000
1798.00,0.0000
1797.00,0.0001
1796.00,0.0001
1795.00,0.0001
1794.00,0.0001
1793.00,0.0001
1792.00,0.0001
1791.00,0.0000
1790.00,0.0000
1789.00,0.0001
1788.00,0.0000
1787.00,0.0000
1786.00,0.0000
1785.00,0.0000
1784.00,0.0000
1783.00,0.0000
1782.00,0.0000
1781.00,0.0000
1780.00,0.0000
1779.00,0.0000
1778.00,0.0000
1777.00,0.0001
1776.00,0.0001
1775.00,0.0001
1774.00,0.0001
1773.00,0.0001
1772.00,0.0001
1771.00,0.0000
1770.00,0.0000
1769.00,0.0000
1768.00,0.0001
1767.00,0.0001
1766.00,0.0001
1765.00,0.0001
1764.00,0.0001
1763.00,0.0001
1762.00,0.0000
1761.00,0.0000
1760.00,0.0000
1759.00,0.0001
1758.00,0.0001
1757.00,0.0001
1756.00,0.0001
1755.00,0.0001
1754.00,0.0001
1753.00,0.0002
1752.00,0.0002
1751.00,0.0002
1750.00,0.0002
1749.00,0.0002
1748.00,0.0001
1747.00,0.0001
1746.00,0.0001
1745.00,0.0001
1744.00,0.0001
1743.00,0.0001
1742.00,0.0001
1741.00,0.0001
1740.00,0.0001
1739.00,0.0001
1738.00,0.0002
1737.00,0.0002
1736.00,0.0003
1735.00,0.0003
1734.00,0.0003
1733.00,0.0002
1732.00,0.0002
1731.00,0.0002
1730.00,0.0002
1729.00,0.0002
1728.00,0.0002
1727.00,0.0002
1726.00,0.0002
1725.00,0.0002
1724.00,0.0002
1723.00,0.0002
1722.00,0.0002
1721.00,0.0002
1720.00,0.0002
1719.00,0.0002
1718.00,0.0003
1717.00,0.0003
1716.00,0.0003
1715.00,0.0003
1714.00,0.0003
1713.00,0.0003
1712.00,0.0003
1711.00,0.0003
1710.00,0.0003
1709.00,0.0004
1708.00,0.0004
1707.00,0.0004
1706.00,0.0003
1705.00,0.0003
1704.00,0.0004
1703.00,0.0004
1702.00,0.0005
1701.00,0.0006
1700.00,0.0006
1699.00,0.0006
1698.00,0.0006
1697.00,0.0007
1696.00,0.0007
1695.00,0.0007
1694.00,0.0007
1693.00,0.0007
1692.00,0.0008
1691.00,0.0008
1690.00,0.0009
1689.00,0.0009
1688.00,0.0009
1687.00,0.0009
1686.00,0.0010
1685.00,0.0010
1684.00,0.0010
1683.00,0.0011
1682.00,0.0011
1681.00,0.0012
1680.00,0.0012
1679.00,0.0012
1678.00,0.0013
1677.00,0.0013
1676.00,0.0014
1675.00,0.0014
1674.00,0.0015
1673.00,0.0015
1672.00,0.0015
1671.00,0.0015
1670.00,0.0016
1669.00,0.0016
1668.00,0.0016
1667.00,0.0016
1666.00,0.0017
1665.00,0.0017
1664.00,0.0017
1663.00,0.0018
1662.00,0.0018
1661.00,0.0018
1660.00,0.0019
1659.00,0.0019
1658.00,0.0019
1657.00,0.0019
1656.00,0.0019
1655.00,0.0019
1654.00,0.0019
1653.00,0.0020
1652.00,0.0021
1651.00,0.0020
1650.00,0.0021
1649.00,0.0021
1648.00,0.0021
1647.00,0.0021
1646.00,0.0022
1645.00,0.0022
1644.00,0.0022
1643.00,0.0022
1642.00,0.0022
1641.00,0.0021
1640.00,0.0021
1639.00,0.0021
1638.00,0.0021
1637.00,0.0021
1636.00,0.0021
1635.00,0.0021
1634.00,0.0021
1633.00,0.0021
1632.00,0.0020
1631.00,0.0020
1630.00,0.0020
1629.00,0.0020
1628.00,0.0020
1627.00,0.0019
1626.00,0.0019
1625.00,0.0019
1624.00,0.0019
1623.00,0.0019
1622.00,0.0019
1621.00,0.0019
1620.00,0.0018
1619.00,0.0018
1618.00,0.0018
1617.00,0.0018
1616.00,0.0017
1615.00,0.0017
1614.00,0.0017
1613.00,0.0017
1612.00,0.0017
1611.00,0.0017
1610.00,0.0016
1609.00,0.0016
1608.00,0.0016
1607.00,0.0016
1606.00,0.0016
1605.00,0.0016
1604.00,0.0016
1603.00,0.0016
1602.00,0.0016
1601.00,0.0016
1600.00,0.0016
1599.00,0.0016
1598.00,0.0016
1597.00,0.0016
1596.00,0.0016
1595.00,0.0016
1594.00,0.0016
1593.00,0.0016
1592.00,0.0016
1591.00,0.0016
1590.00,0.0016
1589.00,0.0016
1588.00,0.0016
1587.00,0.0016
1586.00,0.0016
1585.00,0.0016
1584.00,0.0016
1583.00,0.0016
1582.00,0.0016
1581.00,0.0016
1580.00,0.0016
1579.00,0.0016
1578.00,0.0016
1577.00,0.0016
1576.00,0.0016
1575.00,0.0017
1574.00,0.0017
1573.00,0.0017
1572.00,0.0017
1571.00,0.0017
1570.00,0.0018
1569.00,0.0018
1568.00,0.0018
1567.00,0.0018
1566.00,0.0018
1565.00,0.0018
1564.00,0.0018
1563.00,0.0018
1562.00,0.0018
1561.00,0.0018
1560.00,0.0017
1559.00,0.0018
1558.00,0.0020
1557.00,0.0020
1556.00,0.0020
1555.00,0.0020
1554.00,0.0020
1553.00,0.0020
1552.00,0.0020
1551.00,0.0020
1550.00,0.0020
1549.00,0.0020
1548.00,0.0020
1547.00,0.0020
1546.00,0.0020
1545.00,0.0020
1544.00,0.0020
1543.00,0.0020
1542.00,0.0020
1541.00,0.0020
1540.00,0.0019
1539.00,0.0019
1538.00,0.0019
1537.00,0.0018
1536.00,0.0018
1535.00,0.0018
1534.00,0.0018
1533.00,0.0017
1532.00,0.0017
1531.00,0.0017
1530.00,0.0017
1529.00,0.0017
1528.00,0.0017
1527.00,0.0016
1526.00,0.0017
1525.00,0.0017
1524.00,0.0016
1523.00,0.0016
1522.00,0.0016
1521.00,0.0016
1520.00,0.0016
1519.00,0.0015
1518.00,0.0015
1517.00,0.0015
1516.00,0.0015
1515.00,0.0015
1514.00,0.0015
1513.00,0.0015
1512.00,0.0014
1511.00,0.0014
1510.00,0.0014
1509.00,0.0014
1508.00,0.0014
1507.00,0.0013
1506.00,0.0013
1505.00,0.0012
1504.00,0.0012
1503.00,0.0011
1502.00,0.0011
1501.00,0.0011
1500.00,0.0011
1499.00,0.0010
1498.00,0.0010
1497.00,0.0010
1496.00,0.0010
1495.00,0.0009
1494.00,0.0009
1493.00,0.0009
1492.00,0.0009
1491.00,0.0009
1490.00,0.0009
1489.00,0.0009
1488.00,0.0008
1487.00,0.0008
1486.00,0.0008
1485.00,0.0008
1484.00,0.0008
1483.00,0.0008
1482.00,0.0008
1481.00,0.0008
1480.00,0.0008
1479.00,0.0008
1478.00,0.0008
1477.00,0.0007
1476.00,0.0007
1475.00,0.0006
1474.00,0.0006
1473.00,0.0005
1472.00,0.0005
1471.00,0.0006
1470.00,0.0006
1469.00,0.0006
1468.00,0.0006
1467.00,0.0006
1466.00,0.0006
1465.00,0.0005
1464.00,0.0005
1463.00,0.0005
1462.00,0.0006
1461.00,0.0006
1460.00,0.0007
1459.00,0.0008
1458.00,0.0009
1457.00,0.0010
1456.00,0.0010
1455.00,0.0010
1454.00,0.0010
1453.00,0.0010
1452.00,0.0010
1451.00,0.0010
1450.00,0.0010
1449.00,0.0010
1448.00,0.0010
1447.00,0.0010
1446.00,0.0010
1445.00,0.0010
1444.00,0.0010
1443.00,0.0010
1442.00,0.0010
1441.00,0.0010
1440.00,0.0010
1439.00,0.0010
1438.00,0.0011
1437.00,0.0011
1436.00,0.0011
1435.00,0.0011
1434.00,0.0011
1433.00,0.0011
1432.00,0.0011
1431.00,0.0011
1430.00,0.0011
1429.00,0.0011
1428.00,0.0011
1427.00,0.0011
1426.00,0.0012
1425.00,0.0012
1424.00,0.0012
1423.00,0.0012
1422.00,0.0012
1421.00,0.0013
1420.00,0.0013
1419.00,0.0013
1418.00,0.0013
1417.00,0.0013
1416.00,0.0013
1415.00,0.0013
1414.00,0.0013
1413.00,0.0013
1412.00,0.0013
1411.00,0.0014
1410.00,0.0014
1409.00,0.0014
1408.00,0.0014
1407.00,0.0014
1406.00,0.0014
1405.00,0.0014
1404.00,0.0015
1403.00,0.0015
1402.00,0.0015
1401.00,0.0015
1400.00,0.0015
1399.00,0.0015
1398.00,0.0015
1397.00,0.0015
1396.00,0.0015
1395.00,0.0015
1394.00,0.0015
1393.00,0.0015
1392.00,0.0015
1391.00,0.0015
1390.00,0.0015
1389.00,0.0014
1388.00,0.0014
1387.00,0.0014
1386.00,0.0014
1385.00,0.0014
1384.00,0.0013
1383.00,0.0013
1382.00,0.0013
1381.00,0.0013
1380.00,0.0013
1379.00,0.0013
1378.00,0.0013
1377.00,0.0012
1376.00,0.0012
1375.00,0.0012
1374.00,0.0012
1373.00,0.0012
1372.00,0.0012
1371.00,0.0012
1370.00,0.0012
1369.00,0.0012
1368.00,0.0012
1367.00,0.0012
1366.00,0.0011
1365.00,0.0011
1364.00,0.0011
1363.00,0.0011
1362.00,0.0011
1361.00,0.0011
1360.00,0.0011
1359.00,0.0011
1358.00,0.0011
1357.00,0.0011
1356.00,0.0011
1355.00,0.0011
1354.00,0.0011
1353.00,0.0011
1352.00,0.0011
1351.00,0.0011
1350.00,0.0011
1349.00,0.0011
1348.00,0.0011
1347.00,0.0011
1346.00,0.0011
1345.00,0.0011
1344.00,0.0011
1343.00,0.0011
1342.00,0.0011
1341.00,0.0012
1340.00,0.0011
1339.00,0.0011
1338.00,0.0012
1337.00,0.0011
1336.00,0.0011
1335.00,0.0011
1334.00,0.0011
1333.00,0.0011
1332.00,0.0011
1331.00,0.0011
1330.00,0.0011
1329.00,0.0010
1328.00,0.0010
1327.00,0.0010
1326.00,0.0010
1325.00,0.0010
1324.00,0.0010
1323.00,0.0010
1322.00,0.0010
1321.00,0.0010
1320.00,0.0010
1319.00,0.0010
1318.00,0.0010
1317.00,0.0010
1316.00,0.0010
1315.00,0.0010
1314.00,0.0010
1313.00,0.0010
1312.00,0.0010
1311.00,0.0010
1310.00,0.0010
1309.00,0.0010
1308.00,0.0010
1307.00,0.0009
1306.00,0.0010
1305.00,0.0009
1304.00,0.0009
1303.00,0.0009
1302.00,0.0009
1301.00,0.0009
1300.00,0.0009
1299.00,0.0009
1298.00,0.0009
1297.00,0.0009
1296.00,0.0009
1295.00,0.0009
1294.00,0.0009
1293.00,0.0009
1292.00,0.0009
1291.00,0.0009
1290.00,0.0009
1289.00,0.0009
1288.00,0.0009
1287.00,0.0009
1286.00,0.0009
1285.00,0.0009
1284.00,0.0009
1283.00,0.0009
1282.00,0.0009
1281.00,0.0009
1280.00,0.0009
1279.00,0.0009
1278.00,0.0009
1277.00,0.0009
1276.00,0.0009
1275.00,0.0009
1274.00,0.0009
1273.00,0.0009
1272.00,0.0009
1271.00,0.0009
1270.00,0.0009
1269.00,0.0009
1268.00,0.0009
1267.00,0.0009
1266.00,0.0009
1265.00,0.0009
1264.00,0.0009
1263.00,0.0009
1262.00,0.0009
1261.00,0.0009
1260.00,0.0009
1259.00,0.0010
1258.00,0.0010
1257.00,0.0010
1256.00,0.0010
1255.00,0.0010
1254.00,0.0010
1253.00,0.0010
1252.00,0.0010
1251.00,0.0010
1250.00,0.0011
1249.00,0.0011
1248.00,0.0011
1247.00,0.0011
1246.00,0.0011
1245.00,0.0011
1244.00,0.0011
1243.00,0.0011
1242.00,0.0012
1241.00,0.0012
1240.00,0.0012
1239.00,0.0012
1238.00,0.0012
1237.00,0.0012
1236.00,0.0012
1235.00,0.0012
1234.00,0.0013
1233.00,0.0013
1232.00,0.0013
1231.00,0.0013
1230.00,0.0013
1229.00,0.0013
1228.00,0.0013
1227.00,0.0013
1226.00,0.0014
1225.00,0.0014
1224.00,0.0014
1223.00,0.0014
1222.00,0.0014
1221.00,0.0014
1220.00,0.0014
1219.00,0.0014
1218.00,0.0014
1217.00,0.0014
1216.00,0.0013
1215.00,0.0013
1214.00,0.0014
1213.00,0.0014
1212.00,0.0014
1211.00,0.0014
1210.00,0.0014
1209.00,0.0014
1208.00,0.0014
1207.00,0.0014
1206.00,0.0014
1205.00,0.0014
1204.00,0.0014
1203.00,0.0013
1202.00,0.0014
1201.00,0.0014
1200.00,0.0013
1199.00,0.0013
1198.00,0.0014
1197.00,0.0014
1196.00,0.0014
1195.00,0.0014
1194.00,0.0014
1193.00,0.0014
1192.00,0.0013
1191.00,0.0013
1190.00,0.0014
1189.00,0.0014
1188.00,0.0013
1187.00,0.0013
1186.00,0.0013
1185.00,0.0013
1184.00,0.0013
1183.00,0.0013
1182.00,0.0013
1181.00,0.0013
1180.00,0.0012
1179.00,0.0012
1178.00,0.0012
1177.00,0.0012
1176.00,0.0012
1175.00,0.0012
1174.00,0.0012
1173.00,0.0012
1172.00,0.0011
1171.00,0.0011
1170.00,0.0011
1169.00,0.0011
1168.00,0.0011
1167.00,0.0011
1166.00,0.0011
1165.00,0.0011
1164.00,0.0011
1163.00,0.0011
1162.00,0.0011
1161.00,0.0011
1160.00,0.0011
1159.00,0.0011
1158.00,0.0011
1157.00,0.0011
1156.00,0.0011
1155.00,0.0011
1154.00,0.0011
1153.00,0.0011
1152.00,0.0011
1151.00,0.0011
1150.00,0.0011
1149.00,0.0011
1148.00,0.0011
1147.00,0.0011
1146.00,0.0011
1145.00,0.0011
1144.00,0.0011
1143.00,0.0010
1142.00,0.0011
1141.00,0.0011
1140.00,0.0011
1139.00,0.0011
1138.00,0.0011
1137.00,0.0011
1136.00,0.0011
1135.00,0.0011
1134.00,0.0011
1133.00,0.0012
1132.00,0.0011
1131.00,0.0011
1130.00,0.0012
1129.00,0.0012
1128.00,0.0012
1127.00,0.0012
1126.00,0.0012
1125.00,0.0012
1124.00,0.0012
1123.00,0.0012
1122.00,0.0012
1121.00,0.0013
1120.00,0.0012
1119.00,0.0012
1118.00,0.0013
1117.00,0.0013
1116.00,0.0013
1115.00,0.0013
1114.00,0.0013
1113.00,0.0013
1112.00,0.0013
1111.00,0.0013
1110.00,0.0013
1109.00,0.0013
1108.00,0.0012
1107.00,0.0012
1106.00,0.0012
1105.00,0.0012
1104.00,0.0012
1103.00,0.0012
1102.00,0.0012
1101.00,0.0012
1100.00,0.0012
1099.00,0.0012
1098.00,0.0012
1097.00,0.0012
1096.00,0.0012
1095.00,0.0012
1094.00,0.0013
1093.00,0.0013
1092.00,0.0012
1091.00,0.0012
1090.00,0.0012
1089.00,0.0012
1088.00,0.0012
1087.00,0.0012
1086.00,0.0012
1085.00,0.0012
1084.00,0.0011
1083.00,0.0011
1082.00,0.0011
1081.00,0.0012
1080.00,0.0011
1079.00,0.0011
1078.00,0.0012
1077.00,0.0012
1076.00,0.0012
1075.00,0.0012
1074.00,0.0012
1073.00,0.0012
1072.00,0.0012
1071.00,0.0012
1070.00,0.0012
1069.00,0.0012
1068.00,0.0012
1067.00,0.0012
1066.00,0.0013
1065.00,0.0013
1064.00,0.0013
1063.00,0.0013
1062.00,0.0014
1061.00,0.0015
1060.00,0.0015
1059.00,0.0015
1058.00,0.0016
1057.00,0.0016
1056.00,0.0016
1055.00,0.0017
1054.00,0.0018
1053.00,0.0019
1052.00,0.0019
1051.00,0.0020
1050.00,0.0020
1049.00,0.0021
1048.00,0.0021
1047.00,0.0021
1046.00,0.0021
1045.00,0.0021
1044.00,0.0021
1043.00,0.0020
1042.00,0.0020
1041.00,0.0019
1040.00,0.0018
1039.00,0.0017
1038.00,0.0017
1037.00,0.0017
1036.00,0.0016
1035.00,0.0015
1034.00,0.0015
1033.00,0.0014
1032.00,0.0014
1031.00,0.0013
1030.00,0.0013
1029.00,0.0013
1028.00,0.0012
1027.00,0.0012
1026.00,0.0012
1025.00,0.0012
1024.00,0.0011
1023.00,0.0011
1022.00,0.0011
1021.00,0.0012
1020.00,0.0011
1019.00,0.0011
1018.00,0.0011
1017.00,0.0011
1016.00,0.0011
1015.00,0.0010
1014.00,0.0010
1013.00,0.0010
1012.00,0.0010
1011.00,0.0010
1010.00,0.0010
1009.00,0.0011
1008.00,0.0010
1007.00,0.0010
1006.00,0.0010
1005.00,0.0010
1004.00,0.0010
1003.00,0.0010
1002.00,0.0010
1001.00,0.0010
1000.00,0.0010
999.00,0.0010
998.00,0.0010
997.00,0.0010
996.00,0.0010
995.00,0.0009
994.00,0.0009
993.00,0.0009
992.00,0.0009
991.00,0.0009
990.00,0.0009
989.00,0.0009
988.00,0.0008
987.00,0.0008
986.00,0.0008
985.00,0.0008
984.00,0.0007
983.00,0.0007
982.00,0.0007
981.00,0.0007
980.00,0.0006
979.00,0.0006
978.00,0.0007
977.00,0.0007
976.00,0.0006
975.00,0.0006
974.00,0.0007
973.00,0.0007
972.00,0.0006
971.00,0.0006
970.00,0.0006
969.00,0.0006
968.00,0.0006
967.00,0.0006
966.00,0.0006
965.00,0.0006
964.00,0.0006
963.00,0.0006
962.00,0.0006
961.00,0.0006
960.00,0.0006
959.00,0.0006
958.00,0.0006
957.00,0.0006
956.00,0.0006
955.00,0.0006
954.00,0.0006
953.00,0.0006
952.00,0.0006
951.00,0.0006
950.00,0.0006
949.00,0.0007
948.00,0.0006
947.00,0.0006
946.00,0.0006
945.00,0.0006
944.00,0.0006
943.00,0.0006
942.00,0.0006
941.00,0.0006
940.00,0.0006
939.00,0.0006
938.00,0.0006
937.00,0.0007
936.00,0.0006
935.00,0.0006
934.00,0.0007
933.00,0.0007
932.00,0.0006
931.00,0.0006
930.00,0.0006
929.00,0.0006
928.00,0.0005
927.00,0.0005
926.00,0.0006
925.00,0.0006
924.00,0.0005
923.00,0.0005
922.00,0.0006
921.00,0.0006
920.00,0.0006
919.00,0.0005
918.00,0.0006
917.00,0.0006
916.00,0.0005
915.00,0.0005
914.00,0.0005
913.00,0.0005
912.00,0.0005
911.00,0.0005
910.00,0.0006
909.00,0.0006
908.00,0.0006
907.00,0.0006
906.00,0.0006
905.00,0.0006
904.00,0.0006
903.00,0.0006
902.00,0.0006
901.00,0.0006
900.00,0.0006
899.00,0.0006
898.00,0.0006
897.00,0.0006
896.00,0.0006
895.00,0.0006
894.00,0.0006
893.00,0.0006
892.00,0.0006
891.00,0.0006
890.00,0.0006
889.00,0.0007
888.00,0.0006
887.00,0.0006
886.00,0.0006
885.00,0.0006
884.00,0.0006
883.00,0.0006
882.00,0.0006
881.00,0.0006
880.00,0.0006
879.00,0.0006
878.00,0.0006
877.00,0.0006
876.00,0.0006
875.00,0.0006
874.00,0.0006
873.00,0.0006
872.00,0.0006
871.00,0.0006
870.00,0.0006
869.00,0.0007
868.00,0.0006
867.00,0.0006
866.00,0.0006
865.00,0.0006
864.00,0.0006
863.00,0.0006
862.00,0.0006
861.00,0.0006
860.00,0.0006
859.00,0.0006
858.00,0.0006
857.00,0.0006
856.00,0.0006
855.00,0.0005
854.00,0.0006
853.00,0.0006
852.00,0.0006
851.00,0.0006
850.00,0.0006
849.00,0.0006
848.00,0.0005
847.00,0.0005
846.00,0.0006
845.00,0.0006
844.00,0.0006
843.00,0.0006
842.00,0.0006
841.00,0.0007
840.00,0.0006
839.00,0.0006
838.00,0.0006
837.00,0.0006
836.00,0.0006
835.00,0.0005
834.00,0.0006
833.00,0.0006
832.00,0.0005
831.00,0.0005
830.00,0.0006
829.00,0.0006
828.00,0.0006
827.00,0.0006
826.00,0.0007
825.00,0.0007
824.00,0.0006
823.00,0.0006
822.00,0.0007
821.00,0.0007
820.00,0.0006
819.00,0.0006
818.00,0.0007
817.00,0.0007
816.00,0.0006
815.00,0.0006
814.00,0.0006
813.00,0.0007
812.00,0.0006
811.00,0.0006
810.00,0.0006
809.00,0.0007
808.00,0.0006
807.00,0.0006
806.00,0.0006
805.00,0.0007
804.00,0.0006
803.00,0.0006
802.00,0.0006
801.00,0.0007
800.00,0.0006
799.00,0.0006
798.00,0.0006
797.00,0.0007
796.00,0.0006
795.00,0.0006
794.00,0.0007
793.00,0.0007
792.00,0.0007
791.00,0.0007
790.00,0.0007
789.00,0.0008
788.00,0.0007
787.00,0.0007
786.00,0.0008
785.00,0.0008
784.00,0.0007
783.00,0.0007
782.00,0.0007
781.00,0.0008
780.00,0.0007
779.00,0.0007
778.00,0.0008
777.00,0.0008
776.00,0.0007
775.00,0.0007
774.00,0.0008
773.00,0.0008
772.00,0.0008
771.00,0.0007
770.00,0.0008
769.00,0.0008
768.00,0.0008
767.00,0.0007
766.00,0.0008
765.00,0.0008
764.00,0.0008
763.00,0.0008
762.00,0.0009
761.00,0.0009
760.00,0.0008
759.00,0.0008
758.00,0.0008
757.00,0.0008
756.00,0.0008
755.00,0.0008
754.00,0.0008
753.00,0.0009
752.00,0.0009
751.00,0.0009
750.00,0.0009
749.00,0.0010
748.00,0.0009
747.00,0.0009
746.00,0.0009
745.00,0.0010
744.00,0.0010
743.00,0.0010
742.00,0.0010
741.00,0.0011
740.00,0.0010
739.00,0.0010
738.00,0.0011
737.00,0.0011
736.00,0.0010
735.00,0.0009
734.00,0.0009
733.00,0.0009
732.00,0.0008
731.00,0.0008
730.00,0.0008
729.00,0.0008
728.00,0.0008
727.00,0.0008
726.00,0.0009
725.00,0.0009
724.00,0.0009
723.00,0.0008
722.00,0.0009
721.00,0.0009
720.00,0.0008
719.00,0.0007
718.00,0.0008
717.00,0.0009
716.00,0.0009
715.00,0.0009
714.00,0.0010
713.00,0.0011
712.00,0.0010
711.00,0.0010
710.00,0.0011
709.00,0.0011
708.00,0.0010
707.00,0.0010
706.00,0.0010
705.00,0.0010
704.00,0.0010
703.00,0.0009
702.00,0.0010
701.00,0.0010
700.00,0.0010
699.00,0.0010
698.00,0.0011
697.00,0.0011
696.00,0.0011
695.00,0.0010
694.00,0.0010
693.00,0.0011
692.00,0.0010
691.00,0.0009
690.00,0.0010
689.00,0.0010
688.00,0.0010
687.00,0.0010
686.00,0.0010
685.00,0.0011
684.00,0.0010
683.00,0.0009
682.00,0.0010
681.00,0.0011
680.00,0.0010
679.00,0.0010
678.00,0.0010
677.00,0.0010
676.00,0.0010
675.00,0.0009
674.00,0.0010
673.00,0.0010
672.00,0.0010
671.00,0.0009
670.00,0.0010
669.00,0.0011
668.00,0.0011
667.00,0.0010
666.00,0.0011
665.00,0.0011
664.00,0.0010
663.00,0.0009
662.00,0.0009
661.00,0.0010
660.00,0.0009
659.00,0.0009
658.00,0.0010
657.00,0.0011
656.00,0.0010
655.00,0.0009
654.00,0.0010
653.00,0.0011
652.00,0.0010
651.00,0.0010
650.00,0.0011
649.00,0.0011
648.00,0.0010
647.00,0.0010
646.00,0.0010
645.00,0.0011
644.00,0.0010
643.00,0.0010
642.00,0.0011
641.00,0.0011
640.00,0.0010
639.00,0.0010
638.00,0.0011
637.00,0.0011
636.00,0.0011
635.00,0.0010
634.00,0.0011
633.00,0.0011
632.00,0.0010
631.00,0.0010
630.00,0.0011
629.00,0.0011
628.00,0.0011
627.00,0.0010
626.00,0.0011
625.00,0.0011
624.00,0.0011
623.00,0.0010
622.00,0.0011
621.00,0.0012
620.00,0.0011
619.00,0.0010
618.00,0.0011
617.00,0.0011
616.00,0.0011
615.00,0.0010
614.00,0.0011
613.00,0.0012
612.00,0.0010
611.00,0.0009
610.00,0.0010
609.00,0.0010
608.00,0.0009
607.00,0.0009
606.00,0.0011
605.00,0.0012
604.00,0.0011
603.00,0.0011
602.00,0.0012
601.00,0.0012
600.00,0.0011
599.00,0.0010
598.00,0.0011
597.00,0.0012
596.00,0.0010
595.00,0.0010
594.00,0.0011
593.00,0.0012
592.00,0.0011
591.00,0.0011
590.00,0.0012
589.00,0.0012
588.00,0.0011
587.00,0.0011
586.00,0.0013
585.00,0.0013
584.00,0.0012
583.00,0.0010
582.00,0.0011
581.00,0.0012
580.00,0.0011
579.00,0.0010
578.00,0.0011
577.00,0.0012
576.00,0.0011
575.00,0.0011
574.00,0.0012
573.00,0.0012
572.00,0.0011
571.00,0.0010
570.00,0.0012
569.00,0.0013
568.00,0.0011
567.00,0.0010
566.00,0.0011
565.00,0.0011
564.00,0.0010
563.00,0.0010
562.00,0.0011
561.00,0.0012
560.00,0.0011
559.00,0.0010
558.00,0.0011
557.00,0.0011
556.00,0.0010
555.00,0.0009
554.00,0.0010
553.00,0.0011
552.00,0.0010
551.00,0.0009
550.00,0.0011
549.00,0.0013
548.00,0.0011
547.00,0.0011
546.00,0.0012
545.00,0.0013
544.00,0.0012
543.00,0.0012
542.00,0.0014
541.00,0.0014
540.00,0.0012
539.00,0.0010
538.00,0.0011
537.00,0.0011
536.00,0.0010
535.00,0.0009
534.00,0.0011
533.00,0.0012
532.00,0.0011
531.00,0.0011
530.00,0.0012
529.00,0.0013
528.00,0.0010
527.00,0.0009
526.00,0.0011
525.00,0.0012
524.00,0.0010
523.00,0.0008
522.00,0.0010
521.00,0.0012
520.00,0.0010
519.00,0.0010
518.00,0.0012
517.00,0.0013
516.00,0.0011
515.00,0.0008
514.00,0.0010
513.00,0.0011
512.00,0.0009
511.00,0.0008
510.00,0.0010
509.00,0.0012
508.00,0.0009
507.00,0.0008
506.00,0.0011
505.00,0.0012
504.00,0.0010
503.00,0.0009
502.00,0.0011
501.00,0.0012
500.00,0.0010
499.00,0.0008
498.00,0.0010
497.00,0.0011
496.00,0.0009
495.00,0.0008
494.00,0.0010
493.00,0.0012
492.00,0.0009
491.00,0.0007
490.00,0.0009
489.00,0.0010
488.00,0.0007
487.00,0.0006
486.00,0.0009
485.00,0.0011
484.00,0.0009
483.00,0.0008
482.00,0.0010
481.00,0.0012
480.00,0.0009
479.00,0.0008
478.00,0.0010
477.00,0.0012
476.00,0.0009
475.00,0.0007
474.00,0.0010
473.00,0.0013
472.00,0.0009
471.00,0.0006
470.00,0.0009
469.00,0.0011
468.00,0.0007
467.00,0.0004
466.00,0.0007
465.00,0.0009
464.00,0.0007
463.00,0.0005
462.00,0.0009
461.00,0.0011
460.00,0.0006
459.00,0.0002
458.00,0.0005
457.00,0.0008
456.00,0.0004
455.00,0.0003
454.00,0.0007
453.00,0.0011
452.00,0.0007
451.00,0.0003
450.00,0.0006
449.00,0.0008
448.00,0.0004
447.00,0.0003
446.00,0.0007
445.00,0.0009
444.00,0.0003
443.00,-0.0001
442.00,0.0004
441.00,0.0008
440.00,0.0005
439.00,0.0003
438.00,0.0007
437.00,0.0010
436.00,0.0005
435.00,0.0000
434.00,0.0003
433.00,0.0006
432.00,0.0002
431.00,-0.0000
430.00,0.0005
429.00,0.0010
428.00,0.0007
427.00,0.0005
426.00,0.0010
425.00,0.0012
424.00,0.0005
423.00,0.0000
422.00,0.0006
421.00,0.0011
420.00,0.0002
419.00,-0.0004
418.00,0.0006
417.00,0.0012
416.00,0.0005
415.00,0.0001
414.00,0.0009
413.00,0.0016
412.00,0.0009
411.00,0.0003
410.00,0.0010
409.00,0.0014
408.00,0.0004
407.00,-0.0004
406.00,0.0004
405.00,0.0010
404.00,0.0001
403.00,-0.0005
402.00,0.0005
401.00,0.0010
400.00,-0.0011
