Created as New Dataset,Sample 122 By YargerLab Date Tuesday, June 04 2024
cm-1,A
4000.00,0.0023
3999.00,0.0023
3998.00,0.0023
3997.00,0.0023
3996.00,0.0023
3995.00,0.0023
3994.00,0.0023
3993.00,0.0023
3992.00,0.0023
3991.00,0.0023
3990.00,0.0023
3989.00,0.0023
3988.00,0.0023
3987.00,0.0023
3986.00,0.0023
3985.00,0.0023
3984.00,0.0023
3983.00,0.0023
3982.00,0.0023
3981.00,0.0023
3980.00,0.0023
3979.00,0.0023
3978.00,0.0023
3977.00,0.0023
3976.00,0.0023
3975.00,0.0023
3974.00,0.0023
3973.00,0.0023
3972.00,0.0023
3971.00,0.0023
3970.00,0.0023
3969.00,0.0023
3968.00,0.0023
3967.00,0.0023
3966.00,0.0023
3965.00,0.0023
3964.00,0.0023
3963.00,0.0023
3962.00,0.0023
3961.00,0.0023
3960.00,0.0023
3959.00,0.0023
3958.00,0.0023
3957.00,0.0023
3956.00,0.0023
3955.00,0.0023
3954.00,0.0023
3953.00,0.0023
3952.00,0.0023
3951.00,0.0023
3950.00,0.0023
3949.00,0.0023
3948.00,0.0023
3947.00,0.0023
3946.00,0.0023
3945.00,0.0023
3944.00,0.0023
3943.00,0.0023
3942.00,0.0023
3941.00,0.0023
3940.00,0.0023
3939.00,0.0023
3938.00,0.0023
3937.00,0.0023
3936.00,0.0023
3935.00,0.0023
3934.00,0.0023
3933.00,0.0023
3932.00,0.0023
3931.00,0.0023
3930.00,0.0023
3929.00,0.0023
3928.00,0.0023
3927.00,0.0023
3926.00,0.0023
3925.00,0.0023
3924.00,0.0023
3923.00,0.0023
3922.00,0.0023
3921.00,0.0023
3920.00,0.0023
3919.00,0.0023
3918.00,0.0023
3917.00,0.0023
3916.00,0.0023
3915.00,0.0023
3914.00,0.0023
3913.00,0.0023
3912.00,0.0023
3911.00,0.0023
3910.00,0.0023
3909.00,0.0023
3908.00,0.0023
3907.00,0.0024
3906.00,0.0024
3905.00,0.0024
3904.00,0.0024
3903.00,0.0024
3902.00,0.0023
3901.00,0.0023
3900.00,0.0023
3899.00,0.0023
3898.00,0.0023
3897.00,0.0023
3896.00,0.0023
3895.00,0.0023
3894.00,0.0023
3893.00,0.0023
3892.00,0.0023
3891.00,0.0023
3890.00,0.0023
3889.00,0.0023
3888.00,0.0023
3887.00,0.0023
3886.00,0.0023
3885.00,0.0023
3884.00,0.0023
3883.00,0.0023
3882.00,0.0023
3881.00,0.0023
3880.00,0.0023
3879.00,0.0023
3878.00,0.0023
3877.00,0.0023
3876.00,0.0023
3875.00,0.0023
3874.00,0.0023
3873.00,0.0023
3872.00,0.0023
3871.00,0.0023
3870.00,0.0023
3869.00,0.0023
3868.00,0.0023
3867.00,0.0023
3866.00,0.0023
3865.00,0.0023
3864.00,0.0023
3863.00,0.0023
3862.00,0.0023
3861.00,0.0023
3860.00,0.0023
3859.00,0.0023
3858.00,0.0023
3857.00,0.0024
3856.00,0.0024
3855.00,0.0024
3854.00,0.0024
3853.00,0.0024
3852.00,0.0024
3851.00,0.0024
3850.00,0.0023
3849.00,0.0023
3848.00,0.0023
3847.00,0.0023
3846.00,0.0023
3845.00,0.0023
3844.00,0.0023
3843.00,0.0023
3842.00,0.0023
3841.00,0.0024
3840.00,0.0024
3839.00,0.0024
3838.00,0.0024
3837.00,0.0024
3836.00,0.0024
3835.00,0.0023
3834.00,0.0023
3833.00,0.0023
3832.00,0.0023
3831.00,0.0023
3830.00,0.0023
3829.00,0.0023
3828.00,0.0023
3827.00,0.0023
3826.00,0.0023
3825.00,0.0024
3824.00,0.0024
3823.00,0.0024
3822.00,0.0023
3821.00,0.0023
3820.00,0.0024
3819.00,0.0023
3818.00,0.0023
3817.00,0.0023
3816.00,0.0023
3815.00,0.0023
3814.00,0.0023
3813.00,0.0023
3812.00,0.0023
3811.00,0.0023
3810.00,0.0023
3809.00,0.0023
3808.00,0.0023
3807.00,0.0023
3806.00,0.0023
3805.00,0.0023
3804.00,0.0023
3803.00,0.0023
3802.00,0.0023
3801.00,0.0023
3800.00,0.0023
3799.00,0.0023
3798.00,0.0023
3797.00,0.0022
3796.00,0.0022
3795.00,0.0022
3794.00,0.0022
3793.00,0.0022
3792.00,0.0022
3791.00,0.0022
3790.00,0.0022
3789.00,0.0023
3788.00,0.0023
3787.00,0.0023
3786.00,0.0023
3785.00,0.0023
3784.00,0.0023
3783.00,0.0023
3782.00,0.0023
3781.00,0.0023
3780.00,0.0022
3779.00,0.0022
3778.00,0.0023
3777.00,0.0023
3776.00,0.0023
3775.00,0.0023
3774.00,0.0023
3773.00,0.0023
3772.00,0.0023
3771.00,0.0023
3770.00,0.0023
3769.00,0.0023
3768.00,0.0023
3767.00,0.0023
3766.00,0.0022
3765.00,0.0022
3764.00,0.0023
3763.00,0.0023
3762.00,0.0023
3761.00,0.0023
3760.00,0.0022
3759.00,0.0022
3758.00,0.0023
3757.00,0.0023
3756.00,0.0023
3755.00,0.0023
3754.00,0.0023
3753.00,0.0023
3752.00,0.0023
3751.00,0.0023
3750.00,0.0023
3749.00,0.0023
3748.00,0.0023
3747.00,0.0023
3746.00,0.0023
3745.00,0.0022
3744.00,0.0022
3743.00,0.0022
3742.00,0.0022
3741.00,0.0022
3740.00,0.0022
3739.00,0.0022
3738.00,0.0022
3737.00,0.0022
3736.00,0.0022
3735.00,0.0022
3734.00,0.0022
3733.00,0.0021
3732.00,0.0021
3731.00,0.0021
3730.00,0.0021
3729.00,0.0021
3728.00,0.0021
3727.00,0.0021
3726.00,0.0021
3725.00,0.0021
3724.00,0.0021
3723.00,0.0020
3722.00,0.0020
3721.00,0.0020
3720.00,0.0020
3719.00,0.0021
3718.00,0.0021
3717.00,0.0021
3716.00,0.0021
3715.00,0.0021
3714.00,0.0021
3713.00,0.0021
3712.00,0.0021
3711.00,0.0021
3710.00,0.0021
3709.00,0.0021
3708.00,0.0020
3707.00,0.0020
3706.00,0.0020
3705.00,0.0020
3704.00,0.0020
3703.00,0.0020
3702.00,0.0020
3701.00,0.0020
3700.00,0.0020
3699.00,0.0020
3698.00,0.0020
3697.00,0.0020
3696.00,0.0020
3695.00,0.0020
3694.00,0.0020
3693.00,0.0020
3692.00,0.0020
3691.00,0.0020
3690.00,0.0020
3689.00,0.0020
3688.00,0.0020
3687.00,0.0020
3686.00,0.0020
3685.00,0.0020
3684.00,0.0020
3683.00,0.0020
3682.00,0.0020
3681.00,0.0020
3680.00,0.0020
3679.00,0.0021
3678.00,0.0021
3677.00,0.0020
3676.00,0.0020
3675.00,0.0020
3674.00,0.0021
3673.00,0.0021
3672.00,0.0020
3671.00,0.0020
3670.00,0.0020
3669.00,0.0020
3668.00,0.0020
3667.00,0.0020
3666.00,0.0019
3665.00,0.0019
3664.00,0.0019
3663.00,0.0020
3662.00,0.0020
3661.00,0.0020
3660.00,0.0020
3659.00,0.0020
3658.00,0.0020
3657.00,0.0020
3656.00,0.0020
3655.00,0.0020
3654.00,0.0020
3653.00,0.0021
3652.00,0.0021
3651.00,0.0020
3650.00,0.0020
3649.00,0.0020
3648.00,0.0020
3647.00,0.0019
3646.00,0.0019
3645.00,0.0019
3644.00,0.0019
3643.00,0.0019
3642.00,0.0019
3641.00,0.0019
3640.00,0.0019
3639.00,0.0019
3638.00,0.0019
3637.00,0.0019
3636.00,0.0019
3635.00,0.0019
3634.00,0.0020
3633.00,0.0020
3632.00,0.0020
3631.00,0.0020
3630.00,0.0020
3629.00,0.0020
3628.00,0.0020
3627.00,0.0020
3626.00,0.0020
3625.00,0.0019
3624.00,0.0019
3623.00,0.0019
3622.00,0.0020
3621.00,0.0020
3620.00,0.0020
3619.00,0.0020
3618.00,0.0020
3617.00,0.0020
3616.00,0.0020
3615.00,0.0020
3614.00,0.0020
3613.00,0.0020
3612.00,0.0020
3611.00,0.0020
3610.00,0.0020
3609.00,0.0020
3608.00,0.0020
3607.00,0.0020
3606.00,0.0020
3605.00,0.0020
3604.00,0.0020
3603.00,0.0020
3602.00,0.0020
3601.00,0.0020
3600.00,0.0020
3599.00,0.0020
3598.00,0.0020
3597.00,0.0020
3596.00,0.0020
3595.00,0.0020
3594.00,0.0020
3593.00,0.0020
3592.00,0.0020
3591.00,0.0020
3590.00,0.0020
3589.00,0.0020
3588.00,0.0020
3587.00,0.0020
3586.00,0.0020
3585.00,0.0020
3584.00,0.0020
3583.00,0.0020
3582.00,0.0020
3581.00,0.0020
3580.00,0.0020
3579.00,0.0021
3578.00,0.0021
3577.00,0.0021
3576.00,0.0021
3575.00,0.0021
3574.00,0.0021
3573.00,0.0021
3572.00,0.0021
3571.00,0.0022
3570.00,0.0022
3569.00,0.0022
3568.00,0.0022
3567.00,0.0022
3566.00,0.0022
3565.00,0.0022
3564.00,0.0021
3563.00,0.0021
3562.00,0.0022
3561.00,0.0022
3560.00,0.0022
3559.00,0.0022
3558.00,0.0022
3557.00,0.0022
3556.00,0.0022
3555.00,0.0022
3554.00,0.0022
3553.00,0.0023
3552.00,0.0023
3551.00,0.0023
3550.00,0.0023
3549.00,0.0023
3548.00,0.0023
3547.00,0.0023
3546.00,0.0023
3545.00,0.0023
3544.00,0.0023
3543.00,0.0023
3542.00,0.0023
3541.00,0.0023
3540.00,0.0023
3539.00,0.0023
3538.00,0.0023
3537.00,0.0023
3536.00,0.0023
3535.00,0.0023
3534.00,0.0024
3533.00,0.0024
3532.00,0.0024
3531.00,0.0024
3530.00,0.0024
3529.00,0.0024
3528.00,0.0024
3527.00,0.0024
3526.00,0.0024
3525.00,0.0024
3524.00,0.0024
3523.00,0.0024
3522.00,0.0024
3521.00,0.0024
3520.00,0.0024
3519.00,0.0024
3518.00,0.0025
3517.00,0.0025
3516.00,0.0025
3515.00,0.0025
3514.00,0.0025
3513.00,0.0025
3512.00,0.0025
3511.00,0.0025
3510.00,0.0025
3509.00,0.0025
3508.00,0.0025
3507.00,0.0025
3506.00,0.0025
3505.00,0.0025
3504.00,0.0025
3503.00,0.0025
3502.00,0.0026
3501.00,0.0026
3500.00,0.0025
3499.00,0.0025
3498.00,0.0025
3497.00,0.0025
3496.00,0.0025
3495.00,0.0026
3494.00,0.0026
3493.00,0.0026
3492.00,0.0026
3491.00,0.0026
3490.00,0.0026
3489.00,0.0026
3488.00,0.0026
3487.00,0.0026
3486.00,0.0026
3485.00,0.0026
3484.00,0.0026
3483.00,0.0026
3482.00,0.0026
3481.00,0.0026
3480.00,0.0026
3479.00,0.0027
3478.00,0.0026
3477.00,0.0026
3476.00,0.0026
3475.00,0.0026
3474.00,0.0026
3473.00,0.0027
3472.00,0.0027
3471.00,0.0027
3470.00,0.0027
3469.00,0.0027
3468.00,0.0027
3467.00,0.0027
3466.00,0.0027
3465.00,0.0027
3464.00,0.0027
3463.00,0.0027
3462.00,0.0027
3461.00,0.0027
3460.00,0.0027
3459.00,0.0027
3458.00,0.0027
3457.00,0.0027
3456.00,0.0027
3455.00,0.0027
3454.00,0.0027
3453.00,0.0028
3452.00,0.0028
3451.00,0.0028
3450.00,0.0028
3449.00,0.0028
3448.00,0.0028
3447.00,0.0028
3446.00,0.0028
3445.00,0.0028
3444.00,0.0028
3443.00,0.0028
3442.00,0.0028
3441.00,0.0028
3440.00,0.0028
3439.00,0.0028
3438.00,0.0028
3437.00,0.0028
3436.00,0.0028
3435.00,0.0028
3434.00,0.0028
3433.00,0.0029
3432.00,0.0029
3431.00,0.0029
3430.00,0.0029
3429.00,0.0029
3428.00,0.0029
3427.00,0.0029
3426.00,0.0029
3425.00,0.0029
3424.00,0.0029
3423.00,0.0029
3422.00,0.0029
3421.00,0.0029
3420.00,0.0029
3419.00,0.0029
3418.00,0.0029
3417.00,0.0029
3416.00,0.0030
3415.00,0.0030
3414.00,0.0030
3413.00,0.0030
3412.00,0.0030
3411.00,0.0030
3410.00,0.0030
3409.00,0.0030
3408.00,0.0030
3407.00,0.0030
3406.00,0.0030
3405.00,0.0030
3404.00,0.0030
3403.00,0.0030
3402.00,0.0031
3401.00,0.0031
3400.00,0.0031
3399.00,0.0031
3398.00,0.0031
3397.00,0.0031
3396.00,0.0031
3395.00,0.0031
3394.00,0.0031
3393.00,0.0031
3392.00,0.0031
3391.00,0.0031
3390.00,0.0032
3389.00,0.0032
3388.00,0.0032
3387.00,0.0032
3386.00,0.0032
3385.00,0.0032
3384.00,0.0032
3383.00,0.0032
3382.00,0.0032
3381.00,0.0032
3380.00,0.0032
3379.00,0.0033
3378.00,0.0033
3377.00,0.0033
3376.00,0.0033
3375.00,0.0033
3374.00,0.0033
3373.00,0.0033
3372.00,0.0033
3371.00,0.0033
3370.00,0.0034
3369.00,0.0034
3368.00,0.0034
3367.00,0.0034
3366.00,0.0034
3365.00,0.0034
3364.00,0.0034
3363.00,0.0034
3362.00,0.0034
3361.00,0.0035
3360.00,0.0035
3359.00,0.0035
3358.00,0.0035
3357.00,0.0035
3356.00,0.0036
3355.00,0.0036
3354.00,0.0036
3353.00,0.0036
3352.00,0.0036
3351.00,0.0036
3350.00,0.0036
3349.00,0.0036
3348.00,0.0037
3347.00,0.0037
3346.00,0.0037
3345.00,0.0037
3344.00,0.0037
3343.00,0.0038
3342.00,0.0038
3341.00,0.0038
3340.00,0.0038
3339.00,0.0039
3338.00,0.0039
3337.00,0.0039
3336.00,0.0039
3335.00,0.0039
3334.00,0.0039
3333.00,0.0040
3332.00,0.0040
3331.00,0.0040
3330.00,0.0040
3329.00,0.0041
3328.00,0.0041
3327.00,0.0041
3326.00,0.0041
3325.00,0.0042
3324.00,0.0042
3323.00,0.0042
3322.00,0.0042
3321.00,0.0043
3320.00,0.0043
3319.00,0.0044
3318.00,0.0044
3317.00,0.0044
3316.00,0.0044
3315.00,0.0045
3314.00,0.0045
3313.00,0.0045
3312.00,0.0045
3311.00,0.0046
3310.00,0.0046
3309.00,0.0046
3308.00,0.0046
3307.00,0.0047
3306.00,0.0047
3305.00,0.0047
3304.00,0.0048
3303.00,0.0048
3302.00,0.0048
3301.00,0.0048
3300.00,0.0048
3299.00,0.0049
3298.00,0.0049
3297.00,0.0049
3296.00,0.0049
3295.00,0.0049
3294.00,0.0050
3293.00,0.0050
3292.00,0.0050
3291.00,0.0050
3290.00,0.0050
3289.00,0.0050
3288.00,0.0050
3287.00,0.0050
3286.00,0.0050
3285.00,0.0050
3284.00,0.0050
3283.00,0.0050
3282.00,0.0050
3281.00,0.0050
3280.00,0.0050
3279.00,0.0050
3278.00,0.0050
3277.00,0.0050
3276.00,0.0050
3275.00,0.0049
3274.00,0.0049
3273.00,0.0049
3272.00,0.0049
3271.00,0.0048
3270.00,0.0048
3269.00,0.0048
3268.00,0.0048
3267.00,0.0048
3266.00,0.0047
3265.00,0.0047
3264.00,0.0047
3263.00,0.0047
3262.00,0.0047
3261.00,0.0046
3260.00,0.0046
3259.00,0.0046
3258.00,0.0046
3257.00,0.0045
3256.00,0.0045
3255.00,0.0045
3254.00,0.0045
3253.00,0.0044
3252.00,0.0044
3251.00,0.0044
3250.00,0.0044
3249.00,0.0044
3248.00,0.0043
3247.00,0.0043
3246.00,0.0043
3245.00,0.0043
3244.00,0.0042
3243.00,0.0042
3242.00,0.0042
3241.00,0.0042
3240.00,0.0042
3239.00,0.0042
3238.00,0.0041
3237.00,0.0041
3236.00,0.0041
3235.00,0.0041
3234.00,0.0041
3233.00,0.0041
3232.00,0.0040
3231.00,0.0040
3230.00,0.0040
3229.00,0.0040
3228.00,0.0040
3227.00,0.0040
3226.00,0.0040
3225.00,0.0040
3224.00,0.0040
3223.00,0.0039
3222.00,0.0039
3221.00,0.0039
3220.00,0.0039
3219.00,0.0039
3218.00,0.0039
3217.00,0.0039
3216.00,0.0038
3215.00,0.0038
3214.00,0.0038
3213.00,0.0038
3212.00,0.0038
3211.00,0.0038
3210.00,0.0038
3209.00,0.0038
3208.00,0.0037
3207.00,0.0037
3206.00,0.0037
3205.00,0.0037
3204.00,0.0037
3203.00,0.0037
3202.00,0.0037
3201.00,0.0036
3200.00,0.0036
3199.00,0.0036
3198.00,0.0036
3197.00,0.0036
3196.00,0.0036
3195.00,0.0036
3194.00,0.0036
3193.00,0.0036
3192.00,0.0036
3191.00,0.0036
3190.00,0.0036
3189.00,0.0035
3188.00,0.0035
3187.00,0.0035
3186.00,0.0035
3185.00,0.0035
3184.00,0.0035
3183.00,0.0035
3182.00,0.0034
3181.00,0.0034
3180.00,0.0034
3179.00,0.0034
3178.00,0.0034
3177.00,0.0034
3176.00,0.0033
3175.00,0.0033
3174.00,0.0033
3173.00,0.0033
3172.00,0.0033
3171.00,0.0033
3170.00,0.0033
3169.00,0.0033
3168.00,0.0033
3167.00,0.0033
3166.00,0.0032
3165.00,0.0032
3164.00,0.0032
3163.00,0.0032
3162.00,0.0032
3161.00,0.0032
3160.00,0.0032
3159.00,0.0032
3158.00,0.0032
3157.00,0.0032
3156.00,0.0032
3155.00,0.0032
3154.00,0.0031
3153.00,0.0031
3152.00,0.0031
3151.00,0.0031
3150.00,0.0031
3149.00,0.0031
3148.00,0.0031
3147.00,0.0031
3146.00,0.0031
3145.00,0.0031
3144.00,0.0031
3143.00,0.0031
3142.00,0.0031
3141.00,0.0031
3140.00,0.0030
3139.00,0.0030
3138.00,0.0030
3137.00,0.0030
3136.00,0.0030
3135.00,0.0030
3134.00,0.0030
3133.00,0.0030
3132.00,0.0030
3131.00,0.0030
3130.00,0.0030
3129.00,0.0030
3128.00,0.0030
3127.00,0.0030
3126.00,0.0030
3125.00,0.0030
3124.00,0.0030
3123.00,0.0030
3122.00,0.0030
3121.00,0.0030
3120.00,0.0030
3119.00,0.0030
3118.00,0.0030
3117.00,0.0030
3116.00,0.0030
3115.00,0.0030
3114.00,0.0030
3113.00,0.0030
3112.00,0.0030
3111.00,0.0030
3110.00,0.0030
3109.00,0.0030
3108.00,0.0030
3107.00,0.0030
3106.00,0.0030
3105.00,0.0030
3104.00,0.0030
3103.00,0.0030
3102.00,0.0030
3101.00,0.0030
3100.00,0.0030
3099.00,0.0030
3098.00,0.0030
3097.00,0.0030
3096.00,0.0030
3095.00,0.0030
3094.00,0.0031
3093.00,0.0031
3092.00,0.0031
3091.00,0.0031
3090.00,0.0031
3089.00,0.0031
3088.00,0.0031
3087.00,0.0031
3086.00,0.0031
3085.00,0.0031
3084.00,0.0031
3083.00,0.0031
3082.00,0.0031
3081.00,0.0031
3080.00,0.0031
3079.00,0.0031
3078.00,0.0031
3077.00,0.0031
3076.00,0.0031
3075.00,0.0031
3074.00,0.0031
3073.00,0.0031
3072.00,0.0031
3071.00,0.0031
3070.00,0.0031
3069.00,0.0031
3068.00,0.0031
3067.00,0.0031
3066.00,0.0031
3065.00,0.0031
3064.00,0.0031
3063.00,0.0031
3062.00,0.0031
3061.00,0.0031
3060.00,0.0031
3059.00,0.0031
3058.00,0.0031
3057.00,0.0031
3056.00,0.0031
3055.00,0.0030
3054.00,0.0030
3053.00,0.0030
3052.00,0.0030
3051.00,0.0030
3050.00,0.0030
3049.00,0.0030
3048.00,0.0030
3047.00,0.0030
3046.00,0.0030
3045.00,0.0030
3044.00,0.0030
3043.00,0.0030
3042.00,0.0030
3041.00,0.0030
3040.00,0.0030
3039.00,0.0030
3038.00,0.0030
3037.00,0.0030
3036.00,0.0030
3035.00,0.0030
3034.00,0.0030
3033.00,0.0030
3032.00,0.0030
3031.00,0.0029
3030.00,0.0029
3029.00,0.0029
3028.00,0.0029
3027.00,0.0029
3026.00,0.0029
3025.00,0.0029
3024.00,0.0029
3023.00,0.0029
3022.00,0.0029
3021.00,0.0029
3020.00,0.0029
3019.00,0.0029
3018.00,0.0028
3017.00,0.0028
3016.00,0.0028
3015.00,0.0028
3014.00,0.0028
3013.00,0.0028
3012.00,0.0028
3011.00,0.0028
3010.00,0.0028
3009.00,0.0028
3008.00,0.0028
3007.00,0.0028
3006.00,0.0028
3005.00,0.0028
3004.00,0.0028
3003.00,0.0028
3002.00,0.0028
3001.00,0.0028
3000.00,0.0028
2999.00,0.0028
2998.00,0.0028
2997.00,0.0028
2996.00,0.0028
2995.00,0.0028
2994.00,0.0028
2993.00,0.0028
2992.00,0.0028
2991.00,0.0029
2990.00,0.0029
2989.00,0.0029
2988.00,0.0029
2987.00,0.0029
2986.00,0.0029
2985.00,0.0029
2984.00,0.0029
2983.00,0.0029
2982.00,0.0029
2981.00,0.0029
2980.00,0.0030
2979.00,0.0030
2978.00,0.0030
2977.00,0.0030
2976.00,0.0030
2975.00,0.0030
2974.00,0.0030
2973.00,0.0030
2972.00,0.0030
2971.00,0.0030
2970.00,0.0030
2969.00,0.0030
2968.00,0.0031
2967.00,0.0031
2966.00,0.0031
2965.00,0.0031
2964.00,0.0031
2963.00,0.0031
2962.00,0.0031
2961.00,0.0031
2960.00,0.0031
2959.00,0.0031
2958.00,0.0031
2957.00,0.0031
2956.00,0.0031
2955.00,0.0031
2954.00,0.0031
2953.00,0.0031
2952.00,0.0031
2951.00,0.0030
2950.00,0.0030
2949.00,0.0030
2948.00,0.0030
2947.00,0.0030
2946.00,0.0030
2945.00,0.0030
2944.00,0.0030
2943.00,0.0031
2942.00,0.0031
2941.00,0.0031
2940.00,0.0032
2939.00,0.0032
2938.00,0.0032
2937.00,0.0032
2936.00,0.0033
2935.00,0.0033
2934.00,0.0033
2933.00,0.0034
2932.00,0.0034
2931.00,0.0034
2930.00,0.0035
2929.00,0.0035
2928.00,0.0035
2927.00,0.0035
2926.00,0.0035
2925.00,0.0035
2924.00,0.0035
2923.00,0.0035
2922.00,0.0035
2921.00,0.0035
2920.00,0.0035
2919.00,0.0035
2918.00,0.0035
2917.00,0.0035
2916.00,0.0034
2915.00,0.0034
2914.00,0.0034
2913.00,0.0033
2912.00,0.0033
2911.00,0.0032
2910.00,0.0032
2909.00,0.0032
2908.00,0.0032
2907.00,0.0032
2906.00,0.0032
2905.00,0.0032
2904.00,0.0031
2903.00,0.0031
2902.00,0.0031
2901.00,0.0031
2900.00,0.0031
2899.00,0.0031
2898.00,0.0031
2897.00,0.0031
2896.00,0.0030
2895.00,0.0030
2894.00,0.0030
2893.00,0.0030
2892.00,0.0030
2891.00,0.0030
2890.00,0.0030
2889.00,0.0030
2888.00,0.0030
2887.00,0.0030
2886.00,0.0030
2885.00,0.0030
2884.00,0.0030
2883.00,0.0030
2882.00,0.0029
2881.00,0.0029
2880.00,0.0029
2879.00,0.0030
2878.00,0.0030
2877.00,0.0030
2876.00,0.0030
2875.00,0.0030
2874.00,0.0030
2873.00,0.0030
2872.00,0.0030
2871.00,0.0030
2870.00,0.0029
2869.00,0.0029
2868.00,0.0029
2867.00,0.0029
2866.00,0.0029
2865.00,0.0029
2864.00,0.0029
2863.00,0.0029
2862.00,0.0029
2861.00,0.0030
2860.00,0.0030
2859.00,0.0030
2858.00,0.0030
2857.00,0.0030
2856.00,0.0031
2855.00,0.0031
2854.00,0.0031
2853.00,0.0031
2852.00,0.0031
2851.00,0.0031
2850.00,0.0031
2849.00,0.0031
2848.00,0.0030
2847.00,0.0030
2846.00,0.0030
2845.00,0.0030
2844.00,0.0029
2843.00,0.0029
2842.00,0.0029
2841.00,0.0029
2840.00,0.0028
2839.00,0.0028
2838.00,0.0028
2837.00,0.0028
2836.00,0.0028
2835.00,0.0028
2834.00,0.0028
2833.00,0.0028
2832.00,0.0028
2831.00,0.0028
2830.00,0.0028
2829.00,0.0028
2828.00,0.0028
2827.00,0.0028
2826.00,0.0028
2825.00,0.0028
2824.00,0.0028
2823.00,0.0028
2822.00,0.0028
2821.00,0.0028
2820.00,0.0028
2819.00,0.0028
2818.00,0.0028
2817.00,0.0027
2816.00,0.0027
2815.00,0.0027
2814.00,0.0027
2813.00,0.0027
2812.00,0.0028
2811.00,0.0028
2810.00,0.0027
2809.00,0.0027
2808.00,0.0027
2807.00,0.0027
2806.00,0.0027
2805.00,0.0027
2804.00,0.0027
2803.00,0.0027
2802.00,0.0027
2801.00,0.0027
2800.00,0.0027
2799.00,0.0027
2798.00,0.0027
2797.00,0.0027
2796.00,0.0027
2795.00,0.0027
2794.00,0.0027
2793.00,0.0027
2792.00,0.0027
2791.00,0.0027
2790.00,0.0027
2789.00,0.0027
2788.00,0.0027
2787.00,0.0027
2786.00,0.0027
2785.00,0.0027
2784.00,0.0027
2783.00,0.0027
2782.00,0.0027
2781.00,0.0027
2780.00,0.0027
2779.00,0.0027
2778.00,0.0027
2777.00,0.0027
2776.00,0.0027
2775.00,0.0027
2774.00,0.0027
2773.00,0.0027
2772.00,0.0027
2771.00,0.0027
2770.00,0.0027
2769.00,0.0027
2768.00,0.0027
2767.00,0.0027
2766.00,0.0027
2765.00,0.0027
2764.00,0.0027
2763.00,0.0027
2762.00,0.0027
2761.00,0.0026
2760.00,0.0026
2759.00,0.0026
2758.00,0.0026
2757.00,0.0026
2756.00,0.0026
2755.00,0.0026
2754.00,0.0026
2753.00,0.0026
2752.00,0.0026
2751.00,0.0026
2750.00,0.0026
2749.00,0.0026
2748.00,0.0026
2747.00,0.0026
2746.00,0.0026
2745.00,0.0026
2744.00,0.0026
2743.00,0.0026
2742.00,0.0026
2741.00,0.0026
2740.00,0.0026
2739.00,0.0026
2738.00,0.0026
2737.00,0.0026
2736.00,0.0026
2735.00,0.0026
2734.00,0.0026
2733.00,0.0026
2732.00,0.0026
2731.00,0.0026
2730.00,0.0026
2729.00,0.0026
2728.00,0.0026
2727.00,0.0026
2726.00,0.0026
2725.00,0.0026
2724.00,0.0026
2723.00,0.0026
2722.00,0.0026
2721.00,0.0026
2720.00,0.0026
2719.00,0.0026
2718.00,0.0026
2717.00,0.0026
2716.00,0.0026
2715.00,0.0026
2714.00,0.0026
2713.00,0.0026
2712.00,0.0026
2711.00,0.0026
2710.00,0.0026
2709.00,0.0026
2708.00,0.0026
2707.00,0.0026
2706.00,0.0026
2705.00,0.0026
2704.00,0.0026
2703.00,0.0026
2702.00,0.0026
2701.00,0.0026
2700.00,0.0026
2699.00,0.0026
2698.00,0.0025
2697.00,0.0025
2696.00,0.0026
2695.00,0.0026
2694.00,0.0026
2693.00,0.0026
2692.00,0.0026
2691.00,0.0025
2690.00,0.0025
2689.00,0.0025
2688.00,0.0025
2687.00,0.0026
2686.00,0.0026
2685.00,0.0026
2684.00,0.0026
2683.00,0.0026
2682.00,0.0025
2681.00,0.0026
2680.00,0.0026
2679.00,0.0026
2678.00,0.0026
2677.00,0.0026
2676.00,0.0026
2675.00,0.0025
2674.00,0.0025
2673.00,0.0026
2672.00,0.0026
2671.00,0.0026
2670.00,0.0026
2669.00,0.0026
2668.00,0.0026
2667.00,0.0026
2666.00,0.0026
2665.00,0.0027
2664.00,0.0027
2663.00,0.0028
2662.00,0.0028
2661.00,0.0029
2660.00,0.0029
2659.00,0.0029
2658.00,0.0029
2657.00,0.0029
2656.00,0.0029
2655.00,0.0029
2654.00,0.0029
2653.00,0.0029
2652.00,0.0029
2651.00,0.0029
2650.00,0.0029
2649.00,0.0029
2648.00,0.0029
2647.00,0.0029
2646.00,0.0029
2645.00,0.0029
2644.00,0.0029
2643.00,0.0029
2642.00,0.0029
2641.00,0.0029
2640.00,0.0029
2639.00,0.0029
2638.00,0.0028
2637.00,0.0028
2636.00,0.0028
2635.00,0.0028
2634.00,0.0028
2633.00,0.0028
2632.00,0.0028
2631.00,0.0028
2630.00,0.0028
2629.00,0.0028
2628.00,0.0028
2627.00,0.0027
2626.00,0.0027
2625.00,0.0027
2624.00,0.0027
2623.00,0.0027
2622.00,0.0027
2621.00,0.0027
2620.00,0.0027
2619.00,0.0027
2618.00,0.0027
2617.00,0.0027
2616.00,0.0027
2615.00,0.0026
2614.00,0.0026
2613.00,0.0026
2612.00,0.0026
2611.00,0.0026
2610.00,0.0026
2609.00,0.0026
2608.00,0.0026
2607.00,0.0025
2606.00,0.0025
2605.00,0.0025
2604.00,0.0025
2603.00,0.0025
2602.00,0.0025
2601.00,0.0025
2600.00,0.0025
2599.00,0.0024
2598.00,0.0024
2597.00,0.0024
2596.00,0.0024
2595.00,0.0024
2594.00,0.0024
2593.00,0.0024
2592.00,0.0024
2591.00,0.0024
2590.00,0.0023
2589.00,0.0023
2588.00,0.0023
2587.00,0.0023
2586.00,0.0023
2585.00,0.0023
2584.00,0.0023
2583.00,0.0023
2582.00,0.0023
2581.00,0.0023
2580.00,0.0023
2579.00,0.0023
2578.00,0.0023
2577.00,0.0023
2576.00,0.0023
2575.00,0.0023
2574.00,0.0023
2573.00,0.0023
2572.00,0.0023
2571.00,0.0023
2570.00,0.0022
2569.00,0.0022
2568.00,0.0022
2567.00,0.0022
2566.00,0.0022
2565.00,0.0022
2564.00,0.0022
2563.00,0.0022
2562.00,0.0022
2561.00,0.0022
2560.00,0.0022
2559.00,0.0022
2558.00,0.0022
2557.00,0.0022
2556.00,0.0022
2555.00,0.0021
2554.00,0.0021
2553.00,0.0021
2552.00,0.0021
2551.00,0.0021
2550.00,0.0021
2549.00,0.0021
2548.00,0.0021
2547.00,0.0021
2546.00,0.0021
2545.00,0.0021
2544.00,0.0021
2543.00,0.0021
2542.00,0.0021
2541.00,0.0021
2540.00,0.0021
2539.00,0.0021
2538.00,0.0021
2537.00,0.0021
2536.00,0.0021
2535.00,0.0021
2534.00,0.0021
2533.00,0.0020
2532.00,0.0020
2531.00,0.0020
2530.00,0.0020
2529.00,0.0020
2528.00,0.0020
2527.00,0.0021
2526.00,0.0021
2525.00,0.0021
2524.00,0.0021
2523.00,0.0020
2522.00,0.0020
2521.00,0.0020
2520.00,0.0020
2519.00,0.0020
2518.00,0.0020
2517.00,0.0020
2516.00,0.0020
2515.00,0.0020
2514.00,0.0020
2513.00,0.0020
2512.00,0.0020
2511.00,0.0020
2510.00,0.0020
2509.00,0.0020
2508.00,0.0020
2507.00,0.0020
2506.00,0.0020
2505.00,0.0020
2504.00,0.0020
2503.00,0.0020
2502.00,0.0020
2501.00,0.0020
2500.00,0.0020
2499.00,0.0020
2498.00,0.0020
2497.00,0.0020
2496.00,0.0020
2495.00,0.0020
2494.00,0.0020
2493.00,0.0020
2492.00,0.0020
2491.00,0.0020
2490.00,0.0020
2489.00,0.0019
2488.00,0.0019
2487.00,0.0019
2486.00,0.0019
2485.00,0.0019
2484.00,0.0019
2483.00,0.0019
2482.00,0.0019
2481.00,0.0019
2480.00,0.0019
2479.00,0.0019
2478.00,0.0019
2477.00,0.0019
2476.00,0.0019
2475.00,0.0019
2474.00,0.0019
2473.00,0.0020
2472.00,0.0020
2471.00,0.0020
2470.00,0.0020
2469.00,0.0020
2468.00,0.0020
2467.00,0.0020
2466.00,0.0020
2465.00,0.0020
2464.00,0.0020
2463.00,0.0020
2462.00,0.0020
2461.00,0.0020
2460.00,0.0020
2459.00,0.0021
2458.00,0.0021
2457.00,0.0021
2456.00,0.0021
2455.00,0.0021
2454.00,0.0021
2453.00,0.0021
2452.00,0.0021
2451.00,0.0021
2450.00,0.0021
2449.00,0.0020
2448.00,0.0020
2447.00,0.0020
2446.00,0.0020
2445.00,0.0020
2444.00,0.0020
2443.00,0.0020
2442.00,0.0019
2441.00,0.0019
2440.00,0.0019
2439.00,0.0019
2438.00,0.0019
2437.00,0.0019
2436.00,0.0019
2435.00,0.0019
2434.00,0.0019
2433.00,0.0018
2432.00,0.0018
2431.00,0.0019
2430.00,0.0019
2429.00,0.0019
2428.00,0.0019
2427.00,0.0018
2426.00,0.0018
2425.00,0.0018
2424.00,0.0018
2423.00,0.0018
2422.00,0.0018
2421.00,0.0018
2420.00,0.0018
2419.00,0.0018
2418.00,0.0018
2417.00,0.0018
2416.00,0.0018
2415.00,0.0018
2414.00,0.0018
2413.00,0.0018
2412.00,0.0018
2411.00,0.0018
2410.00,0.0018
2409.00,0.0017
2408.00,0.0017
2407.00,0.0017
2406.00,0.0016
2405.00,0.0016
2404.00,0.0016
2403.00,0.0016
2402.00,0.0016
2401.00,0.0016
2400.00,0.0016
2399.00,0.0016
2398.00,0.0016
2397.00,0.0016
2396.00,0.0016
2395.00,0.0016
2394.00,0.0016
2393.00,0.0016
2392.00,0.0016
2391.00,0.0016
2390.00,0.0016
2389.00,0.0015
2388.00,0.0015
2387.00,0.0015
2386.00,0.0015
2385.00,0.0015
2384.00,0.0014
2383.00,0.0014
2382.00,0.0014
2381.00,0.0013
2380.00,0.0013
2379.00,0.0013
2378.00,0.0013
2377.00,0.0013
2376.00,0.0014
2375.00,0.0014
2374.00,0.0014
2373.00,0.0014
2372.00,0.0014
2371.00,0.0013
2370.00,0.0013
2369.00,0.0013
2368.00,0.0013
2367.00,0.0013
2366.00,0.0013
2365.00,0.0013
2364.00,0.0014
2363.00,0.0014
2362.00,0.0014
2361.00,0.0015
2360.00,0.0015
2359.00,0.0015
2358.00,0.0015
2357.00,0.0015
2356.00,0.0015
2355.00,0.0015
2354.00,0.0015
2353.00,0.0015
2352.00,0.0015
2351.00,0.0015
2350.00,0.0015
2349.00,0.0015
2348.00,0.0016
2347.00,0.0017
2346.00,0.0018
2345.00,0.0019
2344.00,0.0019
2343.00,0.0018
2342.00,0.0018
2341.00,0.0018
2340.00,0.0018
2339.00,0.0019
2338.00,0.0019
2337.00,0.0019
2336.00,0.0019
2335.00,0.0019
2334.00,0.0019
2333.00,0.0019
2332.00,0.0018
2331.00,0.0018
2330.00,0.0019
2329.00,0.0020
2328.00,0.0023
2327.00,0.0026
2326.00,0.0029
2325.00,0.0031
2324.00,0.0030
2323.00,0.0028
2322.00,0.0026
2321.00,0.0025
2320.00,0.0023
2319.00,0.0023
2318.00,0.0022
2317.00,0.0022
2316.00,0.0021
2315.00,0.0021
2314.00,0.0021
2313.00,0.0020
2312.00,0.0020
2311.00,0.0019
2310.00,0.0019
2309.00,0.0019
2308.00,0.0019
2307.00,0.0019
2306.00,0.0019
2305.00,0.0019
2304.00,0.0020
2303.00,0.0020
2302.00,0.0020
2301.00,0.0020
2300.00,0.0021
2299.00,0.0021
2298.00,0.0022
2297.00,0.0022
2296.00,0.0023
2295.00,0.0024
2294.00,0.0024
2293.00,0.0025
2292.00,0.0026
2291.00,0.0027
2290.00,0.0027
2289.00,0.0028
2288.00,0.0028
2287.00,0.0028
2286.00,0.0028
2285.00,0.0027
2284.00,0.0027
2283.00,0.0026
2282.00,0.0026
2281.00,0.0026
2280.00,0.0025
2279.00,0.0025
2278.00,0.0025
2277.00,0.0025
2276.00,0.0024
2275.00,0.0024
2274.00,0.0024
2273.00,0.0024
2272.00,0.0024
2271.00,0.0023
2270.00,0.0023
2269.00,0.0022
2268.00,0.0022
2267.00,0.0021
2266.00,0.0021
2265.00,0.0021
2264.00,0.0021
2263.00,0.0021
2262.00,0.0021
2261.00,0.0022
2260.00,0.0022
2259.00,0.0022
2258.00,0.0022
2257.00,0.0021
2256.00,0.0020
2255.00,0.0019
2254.00,0.0019
2253.00,0.0019
2252.00,0.0020
2251.00,0.0020
2250.00,0.0020
2249.00,0.0020
2248.00,0.0021
2247.00,0.0021
2246.00,0.0021
2245.00,0.0020
2244.00,0.0020
2243.00,0.0020
2242.00,0.0020
2241.00,0.0020
2240.00,0.0020
2239.00,0.0020
2238.00,0.0020
2237.00,0.0021
2236.00,0.0021
2235.00,0.0021
2234.00,0.0021
2233.00,0.0021
2232.00,0.0021
2231.00,0.0021
2230.00,0.0020
2229.00,0.0020
2228.00,0.0020
2227.00,0.0019
2226.00,0.0019
2225.00,0.0019
2224.00,0.0020
2223.00,0.0020
2222.00,0.0019
2221.00,0.0019
2220.00,0.0019
2219.00,0.0019
2218.00,0.0019
2217.00,0.0019
2216.00,0.0018
2215.00,0.0018
2214.00,0.0018
2213.00,0.0018
2212.00,0.0019
2211.00,0.0019
2210.00,0.0019
2209.00,0.0020
2208.00,0.0020
2207.00,0.0020
2206.00,0.0019
2205.00,0.0019
2204.00,0.0019
2203.00,0.0020
2202.00,0.0020
2201.00,0.0020
2200.00,0.0020
2199.00,0.0020
2198.00,0.0020
2197.00,0.0020
2196.00,0.0019
2195.00,0.0019
2194.00,0.0020
2193.00,0.0020
2192.00,0.0020
2191.00,0.0021
2190.00,0.0021
2189.00,0.0022
2188.00,0.0022
2187.00,0.0023
2186.00,0.0023
2185.00,0.0022
2184.00,0.0020
2183.00,0.0018
2182.00,0.0016
2181.00,0.0016
2180.00,0.0017
2179.00,0.0018
2178.00,0.0018
2177.00,0.0016
2176.00,0.0014
2175.00,0.0014
2174.00,0.0014
2173.00,0.0016
2172.00,0.0018
2171.00,0.0020
2170.00,0.0023
2169.00,0.0025
2168.00,0.0026
2167.00,0.0026
2166.00,0.0026
2165.00,0.0027
2164.00,0.0028
2163.00,0.0029
2162.00,0.0026
2161.00,0.0018
2160.00,0.0007
2159.00,-0.0004
2158.00,-0.0010
2157.00,-0.0011
2156.00,-0.0008
2155.00,-0.0005
2154.00,-0.0003
2153.00,-0.0001
2152.00,-0.0001
2151.00,0.0000
2150.00,0.0001
2149.00,0.0002
2148.00,0.0002
2147.00,0.0002
2146.00,0.0002
2145.00,0.0002
2144.00,0.0002
2143.00,0.0002
2142.00,0.0002
2141.00,0.0002
2140.00,0.0003
2139.00,0.0003
2138.00,0.0002
2137.00,0.0001
2136.00,-0.0001
2135.00,-0.0003
2134.00,-0.0003
2133.00,-0.0003
2132.00,-0.0001
2131.00,0.0000
2130.00,0.0002
2129.00,0.0003
2128.00,0.0004
2127.00,0.0005
2126.00,0.0007
2125.00,0.0008
2124.00,0.0009
2123.00,0.0010
2122.00,0.0011
2121.00,0.0012
2120.00,0.0013
2119.00,0.0013
2118.00,0.0014
2117.00,0.0015
2116.00,0.0016
2115.00,0.0016
2114.00,0.0016
2113.00,0.0016
2112.00,0.0016
2111.00,0.0016
2110.00,0.0016
2109.00,0.0016
2108.00,0.0016
2107.00,0.0016
2106.00,0.0015
2105.00,0.0015
2104.00,0.0015
2103.00,0.0015
2102.00,0.0015
2101.00,0.0015
2100.00,0.0015
2099.00,0.0015
2098.00,0.0014
2097.00,0.0012
2096.00,0.0011
2095.00,0.0011
2094.00,0.0012
2093.00,0.0013
2092.00,0.0014
2091.00,0.0014
2090.00,0.0015
2089.00,0.0015
2088.00,0.0016
2087.00,0.0016
2086.00,0.0016
2085.00,0.0017
2084.00,0.0017
2083.00,0.0017
2082.00,0.0018
2081.00,0.0018
2080.00,0.0017
2079.00,0.0017
2078.00,0.0017
2077.00,0.0017
2076.00,0.0017
2075.00,0.0017
2074.00,0.0017
2073.00,0.0017
2072.00,0.0017
2071.00,0.0017
2070.00,0.0016
2069.00,0.0016
2068.00,0.0016
2067.00,0.0016
2066.00,0.0016
2065.00,0.0016
2064.00,0.0016
2063.00,0.0015
2062.00,0.0015
2061.00,0.0015
2060.00,0.0015
2059.00,0.0016
2058.00,0.0016
2057.00,0.0017
2056.00,0.0017
2055.00,0.0018
2054.00,0.0021
2053.00,0.0025
2052.00,0.0028
2051.00,0.0028
2050.00,0.0025
2049.00,0.0022
2048.00,0.0020
2047.00,0.0019
2046.00,0.0018
2045.00,0.0018
2044.00,0.0018
2043.00,0.0018
2042.00,0.0018
2041.00,0.0018
2040.00,0.0019
2039.00,0.0019
2038.00,0.0020
2037.00,0.0020
2036.00,0.0019
2035.00,0.0017
2034.00,0.0015
2033.00,0.0013
2032.00,0.0012
2031.00,0.0010
2030.00,0.0010
2029.00,0.0010
2028.00,0.0010
2027.00,0.0011
2026.00,0.0011
2025.00,0.0011
2024.00,0.0011
2023.00,0.0011
2022.00,0.0011
2021.00,0.0011
2020.00,0.0011
2019.00,0.0010
2018.00,0.0010
2017.00,0.0009
2016.00,0.0009
2015.00,0.0010
2014.00,0.0010
2013.00,0.0010
2012.00,0.0010
2011.00,0.0010
2010.00,0.0010
2009.00,0.0009
2008.00,0.0007
2007.00,0.0005
2006.00,0.0003
2005.00,0.0003
2004.00,0.0004
2003.00,0.0005
2002.00,0.0006
2001.00,0.0007
2000.00,0.0008
1999.00,0.0010
1998.00,0.0012
1997.00,0.0013
1996.00,0.0013
1995.00,0.0013
1994.00,0.0013
1993.00,0.0014
1992.00,0.0014
1991.00,0.0015
1990.00,0.0015
1989.00,0.0015
1988.00,0.0015
1987.00,0.0016
1986.00,0.0017
1985.00,0.0019
1984.00,0.0021
1983.00,0.0024
1982.00,0.0026
1981.00,0.0027
1980.00,0.0025
1979.00,0.0019
1978.00,0.0013
1977.00,0.0007
1976.00,0.0004
1975.00,0.0003
1974.00,0.0003
1973.00,0.0003
1972.00,0.0004
1971.00,0.0004
1970.00,0.0004
1969.00,0.0005
1968.00,0.0005
1967.00,0.0005
1966.00,0.0005
1965.00,0.0005
1964.00,0.0005
1963.00,0.0004
1962.00,0.0003
1961.00,0.0002
1960.00,0.0001
1959.00,0.0000
1958.00,0.0001
1957.00,0.0002
1956.00,0.0003
1955.00,0.0004
1954.00,0.0005
1953.00,0.0005
1952.00,0.0005
1951.00,0.0005
1950.00,0.0005
1949.00,0.0004
1948.00,0.0004
1947.00,0.0005
1946.00,0.0005
1945.00,0.0005
1944.00,0.0006
1943.00,0.0006
1942.00,0.0006
1941.00,0.0006
1940.00,0.0006
1939.00,0.0006
1938.00,0.0005
1937.00,0.0005
1936.00,0.0005
1935.00,0.0005
1934.00,0.0005
1933.00,0.0006
1932.00,0.0006
1931.00,0.0006
1930.00,0.0006
1929.00,0.0006
1928.00,0.0006
1927.00,0.0006
1926.00,0.0006
1925.00,0.0006
1924.00,0.0007
1923.00,0.0008
1922.00,0.0008
1921.00,0.0009
1920.00,0.0009
1919.00,0.0009
1918.00,0.0009
1917.00,0.0009
1916.00,0.0008
1915.00,0.0009
1914.00,0.0009
1913.00,0.0009
1912.00,0.0009
1911.00,0.0009
1910.00,0.0009
1909.00,0.0009
1908.00,0.0009
1907.00,0.0009
1906.00,0.0009
1905.00,0.0009
1904.00,0.0009
1903.00,0.0009
1902.00,0.0009
1901.00,0.0009
1900.00,0.0010
1899.00,0.0010
1898.00,0.0009
1897.00,0.0009
1896.00,0.0010
1895.00,0.0010
1894.00,0.0010
1893.00,0.0009
1892.00,0.0009
1891.00,0.0009
1890.00,0.0009
1889.00,0.0009
1888.00,0.0009
1887.00,0.0009
1886.00,0.0010
1885.00,0.0010
1884.00,0.0010
1883.00,0.0010
1882.00,0.0010
1881.00,0.0010
1880.00,0.0010
1879.00,0.0010
1878.00,0.0010
1877.00,0.0010
1876.00,0.0010
1875.00,0.0010
1874.00,0.0010
1873.00,0.0010
1872.00,0.0010
1871.00,0.0010
1870.00,0.0010
1869.00,0.0010
1868.00,0.0009
1867.00,0.0009
1866.00,0.0009
1865.00,0.0009
1864.00,0.0010
1863.00,0.0010
1862.00,0.0010
1861.00,0.0010
1860.00,0.0010
1859.00,0.0010
1858.00,0.0010
1857.00,0.0010
1856.00,0.0010
1855.00,0.0010
1854.00,0.0010
1853.00,0.0010
1852.00,0.0010
1851.00,0.0010
1850.00,0.0010
1849.00,0.0010
1848.00,0.0010
1847.00,0.0010
1846.00,0.0010
1845.00,0.0010
1844.00,0.0010
1843.00,0.0010
1842.00,0.0010
1841.00,0.0010
1840.00,0.0010
1839.00,0.0010
1838.00,0.0010
1837.00,0.0010
1836.00,0.0010
1835.00,0.0011
1834.00,0.0011
1833.00,0.0011
1832.00,0.0011
1831.00,0.0011
1830.00,0.0011
1829.00,0.0011
1828.00,0.0011
1827.00,0.0011
1826.00,0.0011
1825.00,0.0011
1824.00,0.0011
1823.00,0.0011
1822.00,0.0011
1821.00,0.0011
1820.00,0.0010
1819.00,0.0010
1818.00,0.0009
1817.00,0.0008
1816.00,0.0009
1815.00,0.0009
1814.00,0.0010
1813.00,0.0010
1812.00,0.0011
1811.00,0.0011
1810.00,0.0011
1809.00,0.0012
1808.00,0.0012
1807.00,0.0012
1806.00,0.0012
1805.00,0.0012
1804.00,0.0012
1803.00,0.0012
1802.00,0.0012
1801.00,0.0012
1800.00,0.0012
1799.00,0.0012
1798.00,0.0012
1797.00,0.0012
1796.00,0.0013
1795.00,0.0013
1794.00,0.0013
1793.00,0.0013
1792.00,0.0013
1791.00,0.0013
1790.00,0.0013
1789.00,0.0013
1788.00,0.0013
1787.00,0.0013
1786.00,0.0013
1785.00,0.0013
1784.00,0.0013
1783.00,0.0013
1782.00,0.0013
1781.00,0.0013
1780.00,0.0013
1779.00,0.0013
1778.00,0.0013
1777.00,0.0013
1776.00,0.0013
1775.00,0.0013
1774.00,0.0013
1773.00,0.0013
1772.00,0.0013
1771.00,0.0013
1770.00,0.0013
1769.00,0.0013
1768.00,0.0013
1767.00,0.0013
1766.00,0.0013
1765.00,0.0013
1764.00,0.0013
1763.00,0.0013
1762.00,0.0013
1761.00,0.0013
1760.00,0.0013
1759.00,0.0013
1758.00,0.0013
1757.00,0.0014
1756.00,0.0014
1755.00,0.0014
1754.00,0.0014
1753.00,0.0014
1752.00,0.0014
1751.00,0.0014
1750.00,0.0014
1749.00,0.0014
1748.00,0.0015
1747.00,0.0015
1746.00,0.0015
1745.00,0.0015
1744.00,0.0015
1743.00,0.0015
1742.00,0.0014
1741.00,0.0014
1740.00,0.0014
1739.00,0.0014
1738.00,0.0014
1737.00,0.0014
1736.00,0.0014
1735.00,0.0014
1734.00,0.0013
1733.00,0.0013
1732.00,0.0013
1731.00,0.0014
1730.00,0.0014
1729.00,0.0014
1728.00,0.0014
1727.00,0.0015
1726.00,0.0015
1725.00,0.0015
1724.00,0.0015
1723.00,0.0015
1722.00,0.0015
1721.00,0.0016
1720.00,0.0016
1719.00,0.0016
1718.00,0.0016
1717.00,0.0016
1716.00,0.0016
1715.00,0.0017
1714.00,0.0017
1713.00,0.0018
1712.00,0.0019
1711.00,0.0019
1710.00,0.0020
1709.00,0.0021
1708.00,0.0022
1707.00,0.0024
1706.00,0.0026
1705.00,0.0028
1704.00,0.0030
1703.00,0.0032
1702.00,0.0034
1701.00,0.0037
1700.00,0.0039
1699.00,0.0041
1698.00,0.0042
1697.00,0.0042
1696.00,0.0043
1695.00,0.0045
1694.00,0.0046
1693.00,0.0047
1692.00,0.0048
1691.00,0.0049
1690.00,0.0050
1689.00,0.0051
1688.00,0.0053
1687.00,0.0054
1686.00,0.0055
1685.00,0.0056
1684.00,0.0058
1683.00,0.0061
1682.00,0.0062
1681.00,0.0064
1680.00,0.0066
1679.00,0.0067
1678.00,0.0069
1677.00,0.0071
1676.00,0.0073
1675.00,0.0075
1674.00,0.0077
1673.00,0.0079
1672.00,0.0080
1671.00,0.0082
1670.00,0.0085
1669.00,0.0087
1668.00,0.0089
1667.00,0.0091
1666.00,0.0093
1665.00,0.0095
1664.00,0.0097
1663.00,0.0099
1662.00,0.0101
1661.00,0.0104
1660.00,0.0105
1659.00,0.0107
1658.00,0.0108
1657.00,0.0110
1656.00,0.0111
1655.00,0.0111
1654.00,0.0112
1653.00,0.0113
1652.00,0.0115
1651.00,0.0115
1650.00,0.0115
1649.00,0.0115
1648.00,0.0115
1647.00,0.0115
1646.00,0.0115
1645.00,0.0115
1644.00,0.0115
1643.00,0.0115
1642.00,0.0115
1641.00,0.0115
1640.00,0.0114
1639.00,0.0114
1638.00,0.0113
1637.00,0.0112
1636.00,0.0112
1635.00,0.0111
1634.00,0.0111
1633.00,0.0111
1632.00,0.0110
1631.00,0.0109
1630.00,0.0108
1629.00,0.0107
1628.00,0.0106
1627.00,0.0104
1626.00,0.0103
1625.00,0.0101
1624.00,0.0099
1623.00,0.0096
1622.00,0.0094
1621.00,0.0091
1620.00,0.0089
1619.00,0.0087
1618.00,0.0084
1617.00,0.0081
1616.00,0.0078
1615.00,0.0076
1614.00,0.0074
1613.00,0.0072
1612.00,0.0070
1611.00,0.0068
1610.00,0.0066
1609.00,0.0064
1608.00,0.0062
1607.00,0.0060
1606.00,0.0059
1605.00,0.0057
1604.00,0.0056
1603.00,0.0054
1602.00,0.0053
1601.00,0.0053
1600.00,0.0052
1599.00,0.0051
1598.00,0.0050
1597.00,0.0050
1596.00,0.0049
1595.00,0.0048
1594.00,0.0048
1593.00,0.0047
1592.00,0.0047
1591.00,0.0046
1590.00,0.0046
1589.00,0.0046
1588.00,0.0045
1587.00,0.0045
1586.00,0.0045
1585.00,0.0045
1584.00,0.0045
1583.00,0.0046
1582.00,0.0046
1581.00,0.0046
1580.00,0.0046
1579.00,0.0046
1578.00,0.0047
1577.00,0.0047
1576.00,0.0048
1575.00,0.0049
1574.00,0.0050
1573.00,0.0051
1572.00,0.0052
1571.00,0.0052
1570.00,0.0054
1569.00,0.0055
1568.00,0.0056
1567.00,0.0057
1566.00,0.0059
1565.00,0.0060
1564.00,0.0062
1563.00,0.0063
1562.00,0.0063
1561.00,0.0064
1560.00,0.0066
1559.00,0.0068
1558.00,0.0070
1557.00,0.0072
1556.00,0.0074
1555.00,0.0075
1554.00,0.0077
1553.00,0.0079
1552.00,0.0080
1551.00,0.0082
1550.00,0.0083
1549.00,0.0085
1548.00,0.0086
1547.00,0.0087
1546.00,0.0088
1545.00,0.0090
1544.00,0.0091
1543.00,0.0091
1542.00,0.0092
1541.00,0.0093
1540.00,0.0094
1539.00,0.0096
1538.00,0.0097
1537.00,0.0098
1536.00,0.0098
1535.00,0.0099
1534.00,0.0100
1533.00,0.0101
1532.00,0.0102
1531.00,0.0103
1530.00,0.0104
1529.00,0.0105
1528.00,0.0106
1527.00,0.0107
1526.00,0.0108
1525.00,0.0108
1524.00,0.0109
1523.00,0.0109
1522.00,0.0110
1521.00,0.0112
1520.00,0.0113
1519.00,0.0114
1518.00,0.0114
1517.00,0.0115
1516.00,0.0115
1515.00,0.0115
1514.00,0.0115
1513.00,0.0114
1512.00,0.0112
1511.00,0.0111
1510.00,0.0109
1509.00,0.0107
1508.00,0.0104
1507.00,0.0102
1506.00,0.0100
1505.00,0.0098
1504.00,0.0096
1503.00,0.0095
1502.00,0.0093
1501.00,0.0091
1500.00,0.0088
1499.00,0.0086
1498.00,0.0084
1497.00,0.0081
1496.00,0.0079
1495.00,0.0077
1494.00,0.0075
1493.00,0.0074
1492.00,0.0072
1491.00,0.0070
1490.00,0.0068
1489.00,0.0066
1488.00,0.0065
1487.00,0.0064
1486.00,0.0062
1485.00,0.0061
1484.00,0.0060
1483.00,0.0059
1482.00,0.0058
1481.00,0.0058
1480.00,0.0057
1479.00,0.0056
1478.00,0.0055
1477.00,0.0055
1476.00,0.0054
1475.00,0.0054
1474.00,0.0054
1473.00,0.0054
1472.00,0.0054
1471.00,0.0054
1470.00,0.0054
1469.00,0.0054
1468.00,0.0054
1467.00,0.0054
1466.00,0.0054
1465.00,0.0054
1464.00,0.0055
1463.00,0.0055
1462.00,0.0055
1461.00,0.0055
1460.00,0.0055
1459.00,0.0056
1458.00,0.0056
1457.00,0.0057
1456.00,0.0058
1455.00,0.0058
1454.00,0.0059
1453.00,0.0059
1452.00,0.0060
1451.00,0.0060
1450.00,0.0060
1449.00,0.0060
1448.00,0.0060
1447.00,0.0060
1446.00,0.0060
1445.00,0.0059
1444.00,0.0059
1443.00,0.0059
1442.00,0.0058
1441.00,0.0058
1440.00,0.0057
1439.00,0.0057
1438.00,0.0056
1437.00,0.0055
1436.00,0.0054
1435.00,0.0054
1434.00,0.0053
1433.00,0.0053
1432.00,0.0052
1431.00,0.0052
1430.00,0.0051
1429.00,0.0051
1428.00,0.0051
1427.00,0.0051
1426.00,0.0050
1425.00,0.0050
1424.00,0.0050
1423.00,0.0051
1422.00,0.0051
1421.00,0.0051
1420.00,0.0051
1419.00,0.0051
1418.00,0.0051
1417.00,0.0052
1416.00,0.0052
1415.00,0.0052
1414.00,0.0053
1413.00,0.0053
1412.00,0.0053
1411.00,0.0053
1410.00,0.0053
1409.00,0.0053
1408.00,0.0053
1407.00,0.0053
1406.00,0.0053
1405.00,0.0053
1404.00,0.0052
1403.00,0.0052
1402.00,0.0052
1401.00,0.0052
1400.00,0.0052
1399.00,0.0051
1398.00,0.0051
1397.00,0.0051
1396.00,0.0051
1395.00,0.0051
1394.00,0.0051
1393.00,0.0051
1392.00,0.0051
1391.00,0.0051
1390.00,0.0051
1389.00,0.0051
1388.00,0.0051
1387.00,0.0051
1386.00,0.0051
1385.00,0.0051
1384.00,0.0051
1383.00,0.0051
1382.00,0.0051
1381.00,0.0051
1380.00,0.0051
1379.00,0.0051
1378.00,0.0051
1377.00,0.0051
1376.00,0.0051
1375.00,0.0051
1374.00,0.0050
1373.00,0.0050
1372.00,0.0050
1371.00,0.0050
1370.00,0.0050
1369.00,0.0050
1368.00,0.0050
1367.00,0.0050
1366.00,0.0049
1365.00,0.0049
1364.00,0.0048
1363.00,0.0048
1362.00,0.0048
1361.00,0.0047
1360.00,0.0047
1359.00,0.0047
1358.00,0.0047
1357.00,0.0047
1356.00,0.0047
1355.00,0.0047
1354.00,0.0047
1353.00,0.0047
1352.00,0.0047
1351.00,0.0047
1350.00,0.0047
1349.00,0.0047
1348.00,0.0047
1347.00,0.0047
1346.00,0.0047
1345.00,0.0047
1344.00,0.0047
1343.00,0.0048
1342.00,0.0048
1341.00,0.0048
1340.00,0.0048
1339.00,0.0048
1338.00,0.0048
1337.00,0.0049
1336.00,0.0049
1335.00,0.0049
1334.00,0.0049
1333.00,0.0048
1332.00,0.0048
1331.00,0.0048
1330.00,0.0048
1329.00,0.0048
1328.00,0.0048
1327.00,0.0048
1326.00,0.0048
1325.00,0.0048
1324.00,0.0048
1323.00,0.0047
1322.00,0.0047
1321.00,0.0047
1320.00,0.0047
1319.00,0.0047
1318.00,0.0047
1317.00,0.0048
1316.00,0.0048
1315.00,0.0048
1314.00,0.0048
1313.00,0.0048
1312.00,0.0048
1311.00,0.0048
1310.00,0.0048
1309.00,0.0048
1308.00,0.0048
1307.00,0.0048
1306.00,0.0049
1305.00,0.0049
1304.00,0.0049
1303.00,0.0049
1302.00,0.0049
1301.00,0.0049
1300.00,0.0049
1299.00,0.0049
1298.00,0.0049
1297.00,0.0049
1296.00,0.0049
1295.00,0.0049
1294.00,0.0049
1293.00,0.0049
1292.00,0.0049
1291.00,0.0050
1290.00,0.0050
1289.00,0.0050
1288.00,0.0050
1287.00,0.0050
1286.00,0.0051
1285.00,0.0051
1284.00,0.0051
1283.00,0.0051
1282.00,0.0052
1281.00,0.0052
1280.00,0.0052
1279.00,0.0053
1278.00,0.0053
1277.00,0.0053
1276.00,0.0054
1275.00,0.0054
1274.00,0.0054
1273.00,0.0055
1272.00,0.0056
1271.00,0.0056
1270.00,0.0057
1269.00,0.0057
1268.00,0.0058
1267.00,0.0058
1266.00,0.0058
1265.00,0.0059
1264.00,0.0059
1263.00,0.0059
1262.00,0.0059
1261.00,0.0060
1260.00,0.0060
1259.00,0.0060
1258.00,0.0060
1257.00,0.0060
1256.00,0.0060
1255.00,0.0060
1254.00,0.0060
1253.00,0.0060
1252.00,0.0060
1251.00,0.0061
1250.00,0.0061
1249.00,0.0062
1248.00,0.0062
1247.00,0.0063
1246.00,0.0063
1245.00,0.0063
1244.00,0.0064
1243.00,0.0064
1242.00,0.0065
1241.00,0.0065
1240.00,0.0066
1239.00,0.0066
1238.00,0.0067
1237.00,0.0067
1236.00,0.0068
1235.00,0.0068
1234.00,0.0068
1233.00,0.0068
1232.00,0.0069
1231.00,0.0069
1230.00,0.0069
1229.00,0.0069
1228.00,0.0068
1227.00,0.0068
1226.00,0.0067
1225.00,0.0067
1224.00,0.0066
1223.00,0.0066
1222.00,0.0065
1221.00,0.0064
1220.00,0.0064
1219.00,0.0063
1218.00,0.0062
1217.00,0.0061
1216.00,0.0061
1215.00,0.0060
1214.00,0.0059
1213.00,0.0058
1212.00,0.0057
1211.00,0.0057
1210.00,0.0056
1209.00,0.0055
1208.00,0.0054
1207.00,0.0053
1206.00,0.0052
1205.00,0.0052
1204.00,0.0051
1203.00,0.0051
1202.00,0.0050
1201.00,0.0050
1200.00,0.0049
1199.00,0.0049
1198.00,0.0048
1197.00,0.0048
1196.00,0.0048
1195.00,0.0048
1194.00,0.0047
1193.00,0.0047
1192.00,0.0047
1191.00,0.0047
1190.00,0.0047
1189.00,0.0047
1188.00,0.0047
1187.00,0.0047
1186.00,0.0047
1185.00,0.0047
1184.00,0.0047
1183.00,0.0047
1182.00,0.0047
1181.00,0.0047
1180.00,0.0048
1179.00,0.0048
1178.00,0.0049
1177.00,0.0049
1176.00,0.0050
1175.00,0.0051
1174.00,0.0051
1173.00,0.0052
1172.00,0.0052
1171.00,0.0052
1170.00,0.0053
1169.00,0.0053
1168.00,0.0053
1167.00,0.0053
1166.00,0.0053
1165.00,0.0053
1164.00,0.0053
1163.00,0.0053
1162.00,0.0053
1161.00,0.0053
1160.00,0.0053
1159.00,0.0052
1158.00,0.0052
1157.00,0.0052
1156.00,0.0052
1155.00,0.0051
1154.00,0.0051
1153.00,0.0050
1152.00,0.0050
1151.00,0.0050
1150.00,0.0050
1149.00,0.0049
1148.00,0.0049
1147.00,0.0049
1146.00,0.0048
1145.00,0.0048
1144.00,0.0048
1143.00,0.0048
1142.00,0.0048
1141.00,0.0048
1140.00,0.0047
1139.00,0.0047
1138.00,0.0047
1137.00,0.0047
1136.00,0.0047
1135.00,0.0047
1134.00,0.0047
1133.00,0.0047
1132.00,0.0047
1131.00,0.0047
1130.00,0.0047
1129.00,0.0047
1128.00,0.0048
1127.00,0.0048
1126.00,0.0048
1125.00,0.0048
1124.00,0.0048
1123.00,0.0048
1122.00,0.0048
1121.00,0.0048
1120.00,0.0048
1119.00,0.0049
1118.00,0.0048
1117.00,0.0048
1116.00,0.0048
1115.00,0.0048
1114.00,0.0048
1113.00,0.0048
1112.00,0.0048
1111.00,0.0049
1110.00,0.0049
1109.00,0.0049
1108.00,0.0049
1107.00,0.0049
1106.00,0.0049
1105.00,0.0049
1104.00,0.0049
1103.00,0.0049
1102.00,0.0049
1101.00,0.0049
1100.00,0.0049
1099.00,0.0049
1098.00,0.0050
1097.00,0.0050
1096.00,0.0050
1095.00,0.0050
1094.00,0.0050
1093.00,0.0050
1092.00,0.0050
1091.00,0.0050
1090.00,0.0050
1089.00,0.0050
1088.00,0.0050
1087.00,0.0050
1086.00,0.0051
1085.00,0.0051
1084.00,0.0051
1083.00,0.0052
1082.00,0.0052
1081.00,0.0052
1080.00,0.0052
1079.00,0.0053
1078.00,0.0053
1077.00,0.0053
1076.00,0.0053
1075.00,0.0053
1074.00,0.0053
1073.00,0.0053
1072.00,0.0053
1071.00,0.0053
1070.00,0.0053
1069.00,0.0053
1068.00,0.0053
1067.00,0.0053
1066.00,0.0053
1065.00,0.0053
1064.00,0.0053
1063.00,0.0053
1062.00,0.0053
1061.00,0.0053
1060.00,0.0053
1059.00,0.0053
1058.00,0.0053
1057.00,0.0053
1056.00,0.0053
1055.00,0.0053
1054.00,0.0053
1053.00,0.0053
1052.00,0.0052
1051.00,0.0052
1050.00,0.0052
1049.00,0.0052
1048.00,0.0051
1047.00,0.0051
1046.00,0.0051
1045.00,0.0051
1044.00,0.0051
1043.00,0.0050
1042.00,0.0050
1041.00,0.0050
1040.00,0.0050
1039.00,0.0049
1038.00,0.0049
1037.00,0.0049
1036.00,0.0049
1035.00,0.0049
1034.00,0.0049
1033.00,0.0049
1032.00,0.0049
1031.00,0.0049
1030.00,0.0049
1029.00,0.0049
1028.00,0.0049
1027.00,0.0048
1026.00,0.0048
1025.00,0.0048
1024.00,0.0049
1023.00,0.0049
1022.00,0.0049
1021.00,0.0050
1020.00,0.0050
1019.00,0.0050
1018.00,0.0051
1017.00,0.0051
1016.00,0.0051
1015.00,0.0051
1014.00,0.0051
1013.00,0.0051
1012.00,0.0051
1011.00,0.0051
1010.00,0.0051
1009.00,0.0051
1008.00,0.0051
1007.00,0.0051
1006.00,0.0050
1005.00,0.0050
1004.00,0.0050
1003.00,0.0050
1002.00,0.0050
1001.00,0.0050
1000.00,0.0050
999.00,0.0050
998.00,0.0050
997.00,0.0050
996.00,0.0050
995.00,0.0049
994.00,0.0048
993.00,0.0048
992.00,0.0047
991.00,0.0047
990.00,0.0047
989.00,0.0047
988.00,0.0047
987.00,0.0047
986.00,0.0047
985.00,0.0047
984.00,0.0047
983.00,0.0047
982.00,0.0047
981.00,0.0047
980.00,0.0047
979.00,0.0047
978.00,0.0047
977.00,0.0047
976.00,0.0047
975.00,0.0047
974.00,0.0047
973.00,0.0047
972.00,0.0046
971.00,0.0046
970.00,0.0046
969.00,0.0046
968.00,0.0045
967.00,0.0045
966.00,0.0045
965.00,0.0045
964.00,0.0044
963.00,0.0044
962.00,0.0044
961.00,0.0044
960.00,0.0044
959.00,0.0044
958.00,0.0044
957.00,0.0044
956.00,0.0044
955.00,0.0044
954.00,0.0044
953.00,0.0044
952.00,0.0044
951.00,0.0044
950.00,0.0044
949.00,0.0044
948.00,0.0044
947.00,0.0044
946.00,0.0044
945.00,0.0044
944.00,0.0044
943.00,0.0044
942.00,0.0044
941.00,0.0044
940.00,0.0043
939.00,0.0043
938.00,0.0043
937.00,0.0043
936.00,0.0043
935.00,0.0043
934.00,0.0043
933.00,0.0043
932.00,0.0043
931.00,0.0043
930.00,0.0043
929.00,0.0043
928.00,0.0043
927.00,0.0043
926.00,0.0043
925.00,0.0043
924.00,0.0043
923.00,0.0042
922.00,0.0042
921.00,0.0042
920.00,0.0042
919.00,0.0042
918.00,0.0042
917.00,0.0041
916.00,0.0041
915.00,0.0041
914.00,0.0041
913.00,0.0041
912.00,0.0041
911.00,0.0041
910.00,0.0041
909.00,0.0041
908.00,0.0041
907.00,0.0041
906.00,0.0041
905.00,0.0040
904.00,0.0040
903.00,0.0040
902.00,0.0040
901.00,0.0040
900.00,0.0040
899.00,0.0040
898.00,0.0040
897.00,0.0040
896.00,0.0040
895.00,0.0040
894.00,0.0040
893.00,0.0040
892.00,0.0040
891.00,0.0040
890.00,0.0040
889.00,0.0040
888.00,0.0040
887.00,0.0040
886.00,0.0040
885.00,0.0040
884.00,0.0040
883.00,0.0040
882.00,0.0040
881.00,0.0040
880.00,0.0040
879.00,0.0040
878.00,0.0040
877.00,0.0040
876.00,0.0040
875.00,0.0040
874.00,0.0040
873.00,0.0040
872.00,0.0040
871.00,0.0040
870.00,0.0040
869.00,0.0040
868.00,0.0040
867.00,0.0040
866.00,0.0040
865.00,0.0040
864.00,0.0040
863.00,0.0040
862.00,0.0040
861.00,0.0041
860.00,0.0041
859.00,0.0041
858.00,0.0041
857.00,0.0041
856.00,0.0041
855.00,0.0041
854.00,0.0042
853.00,0.0042
852.00,0.0042
851.00,0.0042
850.00,0.0042
849.00,0.0042
848.00,0.0042
847.00,0.0042
846.00,0.0042
845.00,0.0042
844.00,0.0042
843.00,0.0042
842.00,0.0042
841.00,0.0042
840.00,0.0042
839.00,0.0043
838.00,0.0043
837.00,0.0043
836.00,0.0043
835.00,0.0043
834.00,0.0043
833.00,0.0043
832.00,0.0043
831.00,0.0043
830.00,0.0043
829.00,0.0043
828.00,0.0044
827.00,0.0044
826.00,0.0044
825.00,0.0044
824.00,0.0044
823.00,0.0044
822.00,0.0044
821.00,0.0044
820.00,0.0044
819.00,0.0044
818.00,0.0044
817.00,0.0043
816.00,0.0044
815.00,0.0044
814.00,0.0044
813.00,0.0045
812.00,0.0045
811.00,0.0045
810.00,0.0045
809.00,0.0045
808.00,0.0045
807.00,0.0045
806.00,0.0045
805.00,0.0045
804.00,0.0045
803.00,0.0045
802.00,0.0045
801.00,0.0045
800.00,0.0045
799.00,0.0045
798.00,0.0046
797.00,0.0046
796.00,0.0046
795.00,0.0046
794.00,0.0046
793.00,0.0046
792.00,0.0046
791.00,0.0046
790.00,0.0047
789.00,0.0047
788.00,0.0047
787.00,0.0047
786.00,0.0047
785.00,0.0048
784.00,0.0048
783.00,0.0048
782.00,0.0048
781.00,0.0048
780.00,0.0048
779.00,0.0049
778.00,0.0049
777.00,0.0049
776.00,0.0049
775.00,0.0050
774.00,0.0050
773.00,0.0050
772.00,0.0051
771.00,0.0051
770.00,0.0051
769.00,0.0051
768.00,0.0051
767.00,0.0052
766.00,0.0052
765.00,0.0052
764.00,0.0052
763.00,0.0052
762.00,0.0052
761.00,0.0053
760.00,0.0053
759.00,0.0053
758.00,0.0053
757.00,0.0053
756.00,0.0053
755.00,0.0053
754.00,0.0053
753.00,0.0053
752.00,0.0054
751.00,0.0054
750.00,0.0055
749.00,0.0055
748.00,0.0056
747.00,0.0056
746.00,0.0057
745.00,0.0057
744.00,0.0057
743.00,0.0058
742.00,0.0058
741.00,0.0058
740.00,0.0059
739.00,0.0059
738.00,0.0059
737.00,0.0060
736.00,0.0060
735.00,0.0060
734.00,0.0060
733.00,0.0061
732.00,0.0061
731.00,0.0062
730.00,0.0062
729.00,0.0063
728.00,0.0063
727.00,0.0064
726.00,0.0064
725.00,0.0064
724.00,0.0065
723.00,0.0065
722.00,0.0065
721.00,0.0066
720.00,0.0066
719.00,0.0066
718.00,0.0067
717.00,0.0067
716.00,0.0068
715.00,0.0068
714.00,0.0069
713.00,0.0069
712.00,0.0069
711.00,0.0070
710.00,0.0070
709.00,0.0070
708.00,0.0070
707.00,0.0071
706.00,0.0071
705.00,0.0071
704.00,0.0072
703.00,0.0072
702.00,0.0072
701.00,0.0072
700.00,0.0073
699.00,0.0073
698.00,0.0073
697.00,0.0073
696.00,0.0073
695.00,0.0073
694.00,0.0073
693.00,0.0073
692.00,0.0073
691.00,0.0074
690.00,0.0074
689.00,0.0074
688.00,0.0075
687.00,0.0075
686.00,0.0075
685.00,0.0076
684.00,0.0076
683.00,0.0076
682.00,0.0076
681.00,0.0076
680.00,0.0076
679.00,0.0076
678.00,0.0076
677.00,0.0076
676.00,0.0076
675.00,0.0077
674.00,0.0077
673.00,0.0077
672.00,0.0077
671.00,0.0077
670.00,0.0077
669.00,0.0078
668.00,0.0078
667.00,0.0079
666.00,0.0078
665.00,0.0078
664.00,0.0078
663.00,0.0078
662.00,0.0079
661.00,0.0079
660.00,0.0079
659.00,0.0080
658.00,0.0080
657.00,0.0080
656.00,0.0080
655.00,0.0080
654.00,0.0081
653.00,0.0080
652.00,0.0080
651.00,0.0080
650.00,0.0080
649.00,0.0080
648.00,0.0080
647.00,0.0080
646.00,0.0080
645.00,0.0081
644.00,0.0081
643.00,0.0081
642.00,0.0081
641.00,0.0080
640.00,0.0080
639.00,0.0080
638.00,0.0081
637.00,0.0081
636.00,0.0081
635.00,0.0081
634.00,0.0081
633.00,0.0082
632.00,0.0081
631.00,0.0081
630.00,0.0081
629.00,0.0081
628.00,0.0081
627.00,0.0081
626.00,0.0081
625.00,0.0081
624.00,0.0081
623.00,0.0082
622.00,0.0082
621.00,0.0082
620.00,0.0082
619.00,0.0082
618.00,0.0082
617.00,0.0082
616.00,0.0082
615.00,0.0082
614.00,0.0082
613.00,0.0082
612.00,0.0082
611.00,0.0082
610.00,0.0082
609.00,0.0082
608.00,0.0082
607.00,0.0082
606.00,0.0081
605.00,0.0081
604.00,0.0081
603.00,0.0081
602.00,0.0081
601.00,0.0081
600.00,0.0081
599.00,0.0081
598.00,0.0081
597.00,0.0082
596.00,0.0082
595.00,0.0082
594.00,0.0082
593.00,0.0081
592.00,0.0081
591.00,0.0081
590.00,0.0081
589.00,0.0081
588.00,0.0081
587.00,0.0082
586.00,0.0082
585.00,0.0083
584.00,0.0083
583.00,0.0083
582.00,0.0082
581.00,0.0082
580.00,0.0083
579.00,0.0083
578.00,0.0083
577.00,0.0084
576.00,0.0084
575.00,0.0084
574.00,0.0084
573.00,0.0084
572.00,0.0085
571.00,0.0085
570.00,0.0086
569.00,0.0086
568.00,0.0087
567.00,0.0087
566.00,0.0087
565.00,0.0088
564.00,0.0089
563.00,0.0089
562.00,0.0090
561.00,0.0090
560.00,0.0090
559.00,0.0091
558.00,0.0091
557.00,0.0091
556.00,0.0091
555.00,0.0091
554.00,0.0090
553.00,0.0091
552.00,0.0092
551.00,0.0092
550.00,0.0092
549.00,0.0092
548.00,0.0091
547.00,0.0091
546.00,0.0091
545.00,0.0091
544.00,0.0091
543.00,0.0091
542.00,0.0090
541.00,0.0090
540.00,0.0089
539.00,0.0089
538.00,0.0089
537.00,0.0089
536.00,0.0089
535.00,0.0089
534.00,0.0089
533.00,0.0089
532.00,0.0090
531.00,0.0090
530.00,0.0089
529.00,0.0089
528.00,0.0088
527.00,0.0087
526.00,0.0087
525.00,0.0086
524.00,0.0086
523.00,0.0086
522.00,0.0086
521.00,0.0086
520.00,0.0087
519.00,0.0087
518.00,0.0087
517.00,0.0087
516.00,0.0088
515.00,0.0088
514.00,0.0088
513.00,0.0088
512.00,0.0088
511.00,0.0087
510.00,0.0087
509.00,0.0087
508.00,0.0087
507.00,0.0087
506.00,0.0087
505.00,0.0087
504.00,0.0087
503.00,0.0086
502.00,0.0085
501.00,0.0084
500.00,0.0085
499.00,0.0085
498.00,0.0086
497.00,0.0086
496.00,0.0086
495.00,0.0087
494.00,0.0087
493.00,0.0088
492.00,0.0089
491.00,0.0089
490.00,0.0088
489.00,0.0087
488.00,0.0087
487.00,0.0086
486.00,0.0086
485.00,0.0086
484.00,0.0086
483.00,0.0086
482.00,0.0085
481.00,0.0084
480.00,0.0085
479.00,0.0085
478.00,0.0086
477.00,0.0085
476.00,0.0084
475.00,0.0084
474.00,0.0084
473.00,0.0084
472.00,0.0085
471.00,0.0086
470.00,0.0087
469.00,0.0087
468.00,0.0087
467.00,0.0086
466.00,0.0086
465.00,0.0085
464.00,0.0084
463.00,0.0082
462.00,0.0081
461.00,0.0081
460.00,0.0081
459.00,0.0083
458.00,0.0085
457.00,0.0086
456.00,0.0086
455.00,0.0085
454.00,0.0084
453.00,0.0083
452.00,0.0082
451.00,0.0082
450.00,0.0081
449.00,0.0080
448.00,0.0078
447.00,0.0078
446.00,0.0077
445.00,0.0077
444.00,0.0077
443.00,0.0077
442.00,0.0077
441.00,0.0078
440.00,0.0079
439.00,0.0079
438.00,0.0078
437.00,0.0077
436.00,0.0077
435.00,0.0076
434.00,0.0075
433.00,0.0075
432.00,0.0075
431.00,0.0074
430.00,0.0074
429.00,0.0074
428.00,0.0074
427.00,0.0076
426.00,0.0076
425.00,0.0076
424.00,0.0074
423.00,0.0071
422.00,0.0069
421.00,0.0067
420.00,0.0067
419.00,0.0069
418.00,0.0072
417.00,0.0075
416.00,0.0076
415.00,0.0075
414.00,0.0074
413.00,0.0073
412.00,0.0075
411.00,0.0078
410.00,0.0079
409.00,0.0077
408.00,0.0074
407.00,0.0070
406.00,0.0066
405.00,0.0065
404.00,0.0065
403.00,0.0066
402.00,0.0065
401.00,0.0065
400.00,0.0064
