Created as New Dataset,Sample 124 By YargerLab Date Tuesday, June 04 2024
cm-1,A
4000.00,0.0018
3999.00,0.0018
3998.00,0.0018
3997.00,0.0018
3996.00,0.0018
3995.00,0.0018
3994.00,0.0018
3993.00,0.0018
3992.00,0.0018
3991.00,0.0018
3990.00,0.0018
3989.00,0.0018
3988.00,0.0018
3987.00,0.0018
3986.00,0.0018
3985.00,0.0018
3984.00,0.0018
3983.00,0.0018
3982.00,0.0018
3981.00,0.0018
3980.00,0.0018
3979.00,0.0018
3978.00,0.0018
3977.00,0.0018
3976.00,0.0018
3975.00,0.0018
3974.00,0.0018
3973.00,0.0018
3972.00,0.0018
3971.00,0.0018
3970.00,0.0018
3969.00,0.0018
3968.00,0.0018
3967.00,0.0018
3966.00,0.0018
3965.00,0.0018
3964.00,0.0018
3963.00,0.0018
3962.00,0.0018
3961.00,0.0018
3960.00,0.0018
3959.00,0.0018
3958.00,0.0018
3957.00,0.0018
3956.00,0.0018
3955.00,0.0018
3954.00,0.0018
3953.00,0.0018
3952.00,0.0018
3951.00,0.0018
3950.00,0.0018
3949.00,0.0018
3948.00,0.0018
3947.00,0.0018
3946.00,0.0018
3945.00,0.0018
3944.00,0.0018
3943.00,0.0018
3942.00,0.0018
3941.00,0.0018
3940.00,0.0018
3939.00,0.0018
3938.00,0.0018
3937.00,0.0018
3936.00,0.0018
3935.00,0.0018
3934.00,0.0018
3933.00,0.0018
3932.00,0.0018
3931.00,0.0018
3930.00,0.0018
3929.00,0.0018
3928.00,0.0018
3927.00,0.0018
3926.00,0.0018
3925.00,0.0018
3924.00,0.0018
3923.00,0.0018
3922.00,0.0018
3921.00,0.0018
3920.00,0.0018
3919.00,0.0018
3918.00,0.0018
3917.00,0.0018
3916.00,0.0018
3915.00,0.0018
3914.00,0.0018
3913.00,0.0018
3912.00,0.0018
3911.00,0.0018
3910.00,0.0018
3909.00,0.0018
3908.00,0.0018
3907.00,0.0018
3906.00,0.0018
3905.00,0.0018
3904.00,0.0017
3903.00,0.0017
3902.00,0.0017
3901.00,0.0017
3900.00,0.0017
3899.00,0.0017
3898.00,0.0017
3897.00,0.0017
3896.00,0.0017
3895.00,0.0017
3894.00,0.0017
3893.00,0.0018
3892.00,0.0018
3891.00,0.0018
3890.00,0.0018
3889.00,0.0018
3888.00,0.0017
3887.00,0.0017
3886.00,0.0017
3885.00,0.0017
3884.00,0.0017
3883.00,0.0017
3882.00,0.0017
3881.00,0.0017
3880.00,0.0017
3879.00,0.0017
3878.00,0.0017
3877.00,0.0017
3876.00,0.0017
3875.00,0.0017
3874.00,0.0017
3873.00,0.0017
3872.00,0.0017
3871.00,0.0017
3870.00,0.0016
3869.00,0.0017
3868.00,0.0017
3867.00,0.0017
3866.00,0.0016
3865.00,0.0017
3864.00,0.0017
3863.00,0.0017
3862.00,0.0017
3861.00,0.0017
3860.00,0.0017
3859.00,0.0017
3858.00,0.0018
3857.00,0.0018
3856.00,0.0018
3855.00,0.0017
3854.00,0.0017
3853.00,0.0017
3852.00,0.0017
3851.00,0.0017
3850.00,0.0017
3849.00,0.0017
3848.00,0.0017
3847.00,0.0017
3846.00,0.0017
3845.00,0.0017
3844.00,0.0017
3843.00,0.0017
3842.00,0.0017
3841.00,0.0017
3840.00,0.0017
3839.00,0.0017
3838.00,0.0017
3837.00,0.0017
3836.00,0.0017
3835.00,0.0017
3834.00,0.0017
3833.00,0.0017
3832.00,0.0017
3831.00,0.0017
3830.00,0.0017
3829.00,0.0017
3828.00,0.0017
3827.00,0.0017
3826.00,0.0017
3825.00,0.0017
3824.00,0.0017
3823.00,0.0017
3822.00,0.0017
3821.00,0.0017
3820.00,0.0017
3819.00,0.0017
3818.00,0.0016
3817.00,0.0017
3816.00,0.0017
3815.00,0.0017
3814.00,0.0017
3813.00,0.0017
3812.00,0.0017
3811.00,0.0017
3810.00,0.0017
3809.00,0.0017
3808.00,0.0017
3807.00,0.0017
3806.00,0.0017
3805.00,0.0017
3804.00,0.0017
3803.00,0.0017
3802.00,0.0017
3801.00,0.0017
3800.00,0.0017
3799.00,0.0017
3798.00,0.0017
3797.00,0.0017
3796.00,0.0017
3795.00,0.0017
3794.00,0.0017
3793.00,0.0017
3792.00,0.0018
3791.00,0.0018
3790.00,0.0018
3789.00,0.0018
3788.00,0.0018
3787.00,0.0018
3786.00,0.0018
3785.00,0.0018
3784.00,0.0018
3783.00,0.0018
3782.00,0.0018
3781.00,0.0018
3780.00,0.0018
3779.00,0.0018
3778.00,0.0018
3777.00,0.0018
3776.00,0.0018
3775.00,0.0018
3774.00,0.0018
3773.00,0.0018
3772.00,0.0018
3771.00,0.0018
3770.00,0.0018
3769.00,0.0018
3768.00,0.0018
3767.00,0.0018
3766.00,0.0018
3765.00,0.0018
3764.00,0.0018
3763.00,0.0018
3762.00,0.0017
3761.00,0.0017
3760.00,0.0017
3759.00,0.0017
3758.00,0.0017
3757.00,0.0017
3756.00,0.0017
3755.00,0.0017
3754.00,0.0017
3753.00,0.0017
3752.00,0.0017
3751.00,0.0016
3750.00,0.0016
3749.00,0.0015
3748.00,0.0015
3747.00,0.0015
3746.00,0.0015
3745.00,0.0016
3744.00,0.0016
3743.00,0.0016
3742.00,0.0016
3741.00,0.0016
3740.00,0.0016
3739.00,0.0016
3738.00,0.0015
3737.00,0.0015
3736.00,0.0015
3735.00,0.0015
3734.00,0.0015
3733.00,0.0015
3732.00,0.0015
3731.00,0.0015
3730.00,0.0015
3729.00,0.0015
3728.00,0.0015
3727.00,0.0016
3726.00,0.0016
3725.00,0.0016
3724.00,0.0016
3723.00,0.0016
3722.00,0.0016
3721.00,0.0016
3720.00,0.0016
3719.00,0.0016
3718.00,0.0016
3717.00,0.0016
3716.00,0.0016
3715.00,0.0016
3714.00,0.0016
3713.00,0.0016
3712.00,0.0016
3711.00,0.0015
3710.00,0.0015
3709.00,0.0015
3708.00,0.0015
3707.00,0.0015
3706.00,0.0015
3705.00,0.0015
3704.00,0.0015
3703.00,0.0016
3702.00,0.0016
3701.00,0.0016
3700.00,0.0016
3699.00,0.0016
3698.00,0.0016
3697.00,0.0016
3696.00,0.0016
3695.00,0.0015
3694.00,0.0015
3693.00,0.0015
3692.00,0.0015
3691.00,0.0015
3690.00,0.0015
3689.00,0.0015
3688.00,0.0015
3687.00,0.0014
3686.00,0.0015
3685.00,0.0015
3684.00,0.0015
3683.00,0.0015
3682.00,0.0015
3681.00,0.0015
3680.00,0.0015
3679.00,0.0015
3678.00,0.0015
3677.00,0.0015
3676.00,0.0014
3675.00,0.0015
3674.00,0.0015
3673.00,0.0014
3672.00,0.0014
3671.00,0.0014
3670.00,0.0014
3669.00,0.0015
3668.00,0.0015
3667.00,0.0015
3666.00,0.0015
3665.00,0.0015
3664.00,0.0016
3663.00,0.0016
3662.00,0.0016
3661.00,0.0016
3660.00,0.0016
3659.00,0.0015
3658.00,0.0015
3657.00,0.0015
3656.00,0.0015
3655.00,0.0015
3654.00,0.0015
3653.00,0.0015
3652.00,0.0014
3651.00,0.0014
3650.00,0.0014
3649.00,0.0014
3648.00,0.0014
3647.00,0.0014
3646.00,0.0014
3645.00,0.0014
3644.00,0.0014
3643.00,0.0015
3642.00,0.0015
3641.00,0.0015
3640.00,0.0015
3639.00,0.0015
3638.00,0.0015
3637.00,0.0015
3636.00,0.0015
3635.00,0.0015
3634.00,0.0015
3633.00,0.0015
3632.00,0.0015
3631.00,0.0015
3630.00,0.0014
3629.00,0.0014
3628.00,0.0014
3627.00,0.0014
3626.00,0.0014
3625.00,0.0014
3624.00,0.0014
3623.00,0.0014
3622.00,0.0014
3621.00,0.0014
3620.00,0.0014
3619.00,0.0015
3618.00,0.0015
3617.00,0.0015
3616.00,0.0015
3615.00,0.0015
3614.00,0.0015
3613.00,0.0015
3612.00,0.0015
3611.00,0.0015
3610.00,0.0015
3609.00,0.0015
3608.00,0.0015
3607.00,0.0015
3606.00,0.0015
3605.00,0.0015
3604.00,0.0015
3603.00,0.0015
3602.00,0.0016
3601.00,0.0016
3600.00,0.0016
3599.00,0.0016
3598.00,0.0016
3597.00,0.0016
3596.00,0.0016
3595.00,0.0016
3594.00,0.0016
3593.00,0.0015
3592.00,0.0015
3591.00,0.0015
3590.00,0.0015
3589.00,0.0015
3588.00,0.0016
3587.00,0.0016
3586.00,0.0016
3585.00,0.0016
3584.00,0.0016
3583.00,0.0016
3582.00,0.0016
3581.00,0.0016
3580.00,0.0017
3579.00,0.0017
3578.00,0.0017
3577.00,0.0017
3576.00,0.0017
3575.00,0.0017
3574.00,0.0017
3573.00,0.0017
3572.00,0.0017
3571.00,0.0017
3570.00,0.0017
3569.00,0.0017
3568.00,0.0017
3567.00,0.0017
3566.00,0.0017
3565.00,0.0017
3564.00,0.0017
3563.00,0.0017
3562.00,0.0017
3561.00,0.0017
3560.00,0.0018
3559.00,0.0018
3558.00,0.0018
3557.00,0.0018
3556.00,0.0018
3555.00,0.0018
3554.00,0.0018
3553.00,0.0018
3552.00,0.0018
3551.00,0.0018
3550.00,0.0018
3549.00,0.0018
3548.00,0.0018
3547.00,0.0018
3546.00,0.0018
3545.00,0.0019
3544.00,0.0019
3543.00,0.0019
3542.00,0.0019
3541.00,0.0019
3540.00,0.0019
3539.00,0.0019
3538.00,0.0019
3537.00,0.0019
3536.00,0.0019
3535.00,0.0019
3534.00,0.0019
3533.00,0.0019
3532.00,0.0019
3531.00,0.0020
3530.00,0.0020
3529.00,0.0020
3528.00,0.0020
3527.00,0.0020
3526.00,0.0020
3525.00,0.0020
3524.00,0.0020
3523.00,0.0020
3522.00,0.0020
3521.00,0.0020
3520.00,0.0020
3519.00,0.0020
3518.00,0.0020
3517.00,0.0021
3516.00,0.0021
3515.00,0.0021
3514.00,0.0021
3513.00,0.0021
3512.00,0.0021
3511.00,0.0021
3510.00,0.0021
3509.00,0.0021
3508.00,0.0021
3507.00,0.0021
3506.00,0.0021
3505.00,0.0021
3504.00,0.0021
3503.00,0.0021
3502.00,0.0021
3501.00,0.0021
3500.00,0.0021
3499.00,0.0021
3498.00,0.0021
3497.00,0.0021
3496.00,0.0021
3495.00,0.0022
3494.00,0.0022
3493.00,0.0022
3492.00,0.0022
3491.00,0.0022
3490.00,0.0022
3489.00,0.0022
3488.00,0.0022
3487.00,0.0022
3486.00,0.0022
3485.00,0.0022
3484.00,0.0022
3483.00,0.0022
3482.00,0.0022
3481.00,0.0022
3480.00,0.0022
3479.00,0.0022
3478.00,0.0022
3477.00,0.0022
3476.00,0.0022
3475.00,0.0022
3474.00,0.0022
3473.00,0.0022
3472.00,0.0022
3471.00,0.0023
3470.00,0.0023
3469.00,0.0023
3468.00,0.0023
3467.00,0.0022
3466.00,0.0022
3465.00,0.0023
3464.00,0.0023
3463.00,0.0023
3462.00,0.0023
3461.00,0.0023
3460.00,0.0023
3459.00,0.0023
3458.00,0.0023
3457.00,0.0023
3456.00,0.0023
3455.00,0.0023
3454.00,0.0023
3453.00,0.0023
3452.00,0.0023
3451.00,0.0023
3450.00,0.0023
3449.00,0.0023
3448.00,0.0023
3447.00,0.0023
3446.00,0.0023
3445.00,0.0023
3444.00,0.0023
3443.00,0.0024
3442.00,0.0024
3441.00,0.0024
3440.00,0.0024
3439.00,0.0024
3438.00,0.0024
3437.00,0.0024
3436.00,0.0024
3435.00,0.0024
3434.00,0.0024
3433.00,0.0024
3432.00,0.0024
3431.00,0.0024
3430.00,0.0024
3429.00,0.0024
3428.00,0.0024
3427.00,0.0024
3426.00,0.0025
3425.00,0.0025
3424.00,0.0025
3423.00,0.0025
3422.00,0.0025
3421.00,0.0025
3420.00,0.0025
3419.00,0.0025
3418.00,0.0025
3417.00,0.0025
3416.00,0.0025
3415.00,0.0025
3414.00,0.0025
3413.00,0.0026
3412.00,0.0026
3411.00,0.0026
3410.00,0.0026
3409.00,0.0026
3408.00,0.0026
3407.00,0.0026
3406.00,0.0026
3405.00,0.0026
3404.00,0.0026
3403.00,0.0026
3402.00,0.0027
3401.00,0.0027
3400.00,0.0027
3399.00,0.0027
3398.00,0.0027
3397.00,0.0027
3396.00,0.0027
3395.00,0.0027
3394.00,0.0027
3393.00,0.0027
3392.00,0.0027
3391.00,0.0027
3390.00,0.0027
3389.00,0.0027
3388.00,0.0027
3387.00,0.0028
3386.00,0.0028
3385.00,0.0028
3384.00,0.0028
3383.00,0.0028
3382.00,0.0028
3381.00,0.0028
3380.00,0.0028
3379.00,0.0028
3378.00,0.0029
3377.00,0.0029
3376.00,0.0029
3375.00,0.0029
3374.00,0.0029
3373.00,0.0029
3372.00,0.0029
3371.00,0.0029
3370.00,0.0029
3369.00,0.0029
3368.00,0.0030
3367.00,0.0030
3366.00,0.0030
3365.00,0.0030
3364.00,0.0030
3363.00,0.0030
3362.00,0.0030
3361.00,0.0030
3360.00,0.0030
3359.00,0.0031
3358.00,0.0031
3357.00,0.0031
3356.00,0.0031
3355.00,0.0031
3354.00,0.0031
3353.00,0.0031
3352.00,0.0032
3351.00,0.0032
3350.00,0.0032
3349.00,0.0032
3348.00,0.0032
3347.00,0.0032
3346.00,0.0032
3345.00,0.0033
3344.00,0.0033
3343.00,0.0033
3342.00,0.0033
3341.00,0.0034
3340.00,0.0034
3339.00,0.0034
3338.00,0.0034
3337.00,0.0034
3336.00,0.0035
3335.00,0.0035
3334.00,0.0035
3333.00,0.0035
3332.00,0.0036
3331.00,0.0036
3330.00,0.0036
3329.00,0.0036
3328.00,0.0036
3327.00,0.0037
3326.00,0.0037
3325.00,0.0037
3324.00,0.0037
3323.00,0.0038
3322.00,0.0038
3321.00,0.0038
3320.00,0.0039
3319.00,0.0039
3318.00,0.0039
3317.00,0.0039
3316.00,0.0040
3315.00,0.0040
3314.00,0.0040
3313.00,0.0040
3312.00,0.0041
3311.00,0.0041
3310.00,0.0041
3309.00,0.0041
3308.00,0.0041
3307.00,0.0042
3306.00,0.0042
3305.00,0.0042
3304.00,0.0043
3303.00,0.0043
3302.00,0.0043
3301.00,0.0043
3300.00,0.0044
3299.00,0.0044
3298.00,0.0044
3297.00,0.0044
3296.00,0.0044
3295.00,0.0044
3294.00,0.0045
3293.00,0.0045
3292.00,0.0045
3291.00,0.0045
3290.00,0.0045
3289.00,0.0045
3288.00,0.0045
3287.00,0.0045
3286.00,0.0045
3285.00,0.0045
3284.00,0.0045
3283.00,0.0045
3282.00,0.0045
3281.00,0.0045
3280.00,0.0045
3279.00,0.0045
3278.00,0.0045
3277.00,0.0044
3276.00,0.0044
3275.00,0.0044
3274.00,0.0044
3273.00,0.0044
3272.00,0.0044
3271.00,0.0044
3270.00,0.0043
3269.00,0.0043
3268.00,0.0043
3267.00,0.0043
3266.00,0.0043
3265.00,0.0043
3264.00,0.0042
3263.00,0.0042
3262.00,0.0042
3261.00,0.0041
3260.00,0.0041
3259.00,0.0041
3258.00,0.0041
3257.00,0.0040
3256.00,0.0040
3255.00,0.0040
3254.00,0.0039
3253.00,0.0039
3252.00,0.0039
3251.00,0.0039
3250.00,0.0039
3249.00,0.0039
3248.00,0.0039
3247.00,0.0038
3246.00,0.0038
3245.00,0.0038
3244.00,0.0038
3243.00,0.0037
3242.00,0.0037
3241.00,0.0037
3240.00,0.0037
3239.00,0.0037
3238.00,0.0037
3237.00,0.0036
3236.00,0.0036
3235.00,0.0036
3234.00,0.0036
3233.00,0.0036
3232.00,0.0035
3231.00,0.0035
3230.00,0.0035
3229.00,0.0035
3228.00,0.0035
3227.00,0.0035
3226.00,0.0035
3225.00,0.0035
3224.00,0.0034
3223.00,0.0034
3222.00,0.0034
3221.00,0.0034
3220.00,0.0034
3219.00,0.0034
3218.00,0.0034
3217.00,0.0034
3216.00,0.0033
3215.00,0.0033
3214.00,0.0033
3213.00,0.0033
3212.00,0.0033
3211.00,0.0033
3210.00,0.0033
3209.00,0.0033
3208.00,0.0033
3207.00,0.0032
3206.00,0.0032
3205.00,0.0032
3204.00,0.0032
3203.00,0.0032
3202.00,0.0032
3201.00,0.0032
3200.00,0.0032
3199.00,0.0032
3198.00,0.0031
3197.00,0.0031
3196.00,0.0031
3195.00,0.0031
3194.00,0.0031
3193.00,0.0031
3192.00,0.0031
3191.00,0.0031
3190.00,0.0031
3189.00,0.0031
3188.00,0.0030
3187.00,0.0030
3186.00,0.0030
3185.00,0.0030
3184.00,0.0030
3183.00,0.0030
3182.00,0.0029
3181.00,0.0029
3180.00,0.0029
3179.00,0.0029
3178.00,0.0029
3177.00,0.0029
3176.00,0.0029
3175.00,0.0029
3174.00,0.0028
3173.00,0.0028
3172.00,0.0028
3171.00,0.0028
3170.00,0.0028
3169.00,0.0028
3168.00,0.0028
3167.00,0.0028
3166.00,0.0028
3165.00,0.0027
3164.00,0.0027
3163.00,0.0027
3162.00,0.0027
3161.00,0.0027
3160.00,0.0027
3159.00,0.0027
3158.00,0.0027
3157.00,0.0027
3156.00,0.0027
3155.00,0.0027
3154.00,0.0027
3153.00,0.0026
3152.00,0.0026
3151.00,0.0026
3150.00,0.0026
3149.00,0.0026
3148.00,0.0026
3147.00,0.0026
3146.00,0.0026
3145.00,0.0026
3144.00,0.0026
3143.00,0.0026
3142.00,0.0026
3141.00,0.0025
3140.00,0.0025
3139.00,0.0025
3138.00,0.0025
3137.00,0.0025
3136.00,0.0025
3135.00,0.0025
3134.00,0.0025
3133.00,0.0025
3132.00,0.0025
3131.00,0.0025
3130.00,0.0025
3129.00,0.0025
3128.00,0.0025
3127.00,0.0025
3126.00,0.0025
3125.00,0.0025
3124.00,0.0025
3123.00,0.0025
3122.00,0.0025
3121.00,0.0025
3120.00,0.0025
3119.00,0.0025
3118.00,0.0025
3117.00,0.0025
3116.00,0.0025
3115.00,0.0025
3114.00,0.0025
3113.00,0.0025
3112.00,0.0025
3111.00,0.0025
3110.00,0.0025
3109.00,0.0025
3108.00,0.0025
3107.00,0.0025
3106.00,0.0025
3105.00,0.0025
3104.00,0.0025
3103.00,0.0025
3102.00,0.0025
3101.00,0.0025
3100.00,0.0025
3099.00,0.0025
3098.00,0.0025
3097.00,0.0025
3096.00,0.0025
3095.00,0.0025
3094.00,0.0026
3093.00,0.0026
3092.00,0.0026
3091.00,0.0026
3090.00,0.0026
3089.00,0.0026
3088.00,0.0026
3087.00,0.0026
3086.00,0.0025
3085.00,0.0025
3084.00,0.0025
3083.00,0.0025
3082.00,0.0026
3081.00,0.0026
3080.00,0.0026
3079.00,0.0026
3078.00,0.0026
3077.00,0.0026
3076.00,0.0026
3075.00,0.0026
3074.00,0.0026
3073.00,0.0026
3072.00,0.0026
3071.00,0.0026
3070.00,0.0026
3069.00,0.0026
3068.00,0.0026
3067.00,0.0026
3066.00,0.0026
3065.00,0.0026
3064.00,0.0026
3063.00,0.0026
3062.00,0.0026
3061.00,0.0026
3060.00,0.0026
3059.00,0.0026
3058.00,0.0026
3057.00,0.0026
3056.00,0.0025
3055.00,0.0025
3054.00,0.0025
3053.00,0.0025
3052.00,0.0025
3051.00,0.0025
3050.00,0.0025
3049.00,0.0025
3048.00,0.0025
3047.00,0.0025
3046.00,0.0025
3045.00,0.0025
3044.00,0.0025
3043.00,0.0025
3042.00,0.0025
3041.00,0.0025
3040.00,0.0025
3039.00,0.0024
3038.00,0.0024
3037.00,0.0024
3036.00,0.0024
3035.00,0.0024
3034.00,0.0024
3033.00,0.0024
3032.00,0.0024
3031.00,0.0024
3030.00,0.0024
3029.00,0.0024
3028.00,0.0024
3027.00,0.0024
3026.00,0.0024
3025.00,0.0024
3024.00,0.0024
3023.00,0.0024
3022.00,0.0023
3021.00,0.0023
3020.00,0.0023
3019.00,0.0023
3018.00,0.0023
3017.00,0.0023
3016.00,0.0023
3015.00,0.0023
3014.00,0.0023
3013.00,0.0023
3012.00,0.0022
3011.00,0.0022
3010.00,0.0023
3009.00,0.0023
3008.00,0.0023
3007.00,0.0023
3006.00,0.0023
3005.00,0.0023
3004.00,0.0023
3003.00,0.0023
3002.00,0.0023
3001.00,0.0023
3000.00,0.0023
2999.00,0.0023
2998.00,0.0023
2997.00,0.0023
2996.00,0.0023
2995.00,0.0023
2994.00,0.0023
2993.00,0.0023
2992.00,0.0023
2991.00,0.0023
2990.00,0.0023
2989.00,0.0023
2988.00,0.0023
2987.00,0.0023
2986.00,0.0023
2985.00,0.0023
2984.00,0.0023
2983.00,0.0023
2982.00,0.0023
2981.00,0.0023
2980.00,0.0023
2979.00,0.0023
2978.00,0.0024
2977.00,0.0024
2976.00,0.0024
2975.00,0.0024
2974.00,0.0024
2973.00,0.0024
2972.00,0.0024
2971.00,0.0024
2970.00,0.0024
2969.00,0.0024
2968.00,0.0024
2967.00,0.0024
2966.00,0.0024
2965.00,0.0024
2964.00,0.0024
2963.00,0.0024
2962.00,0.0024
2961.00,0.0023
2960.00,0.0023
2959.00,0.0023
2958.00,0.0023
2957.00,0.0023
2956.00,0.0023
2955.00,0.0023
2954.00,0.0023
2953.00,0.0023
2952.00,0.0023
2951.00,0.0023
2950.00,0.0022
2949.00,0.0022
2948.00,0.0022
2947.00,0.0022
2946.00,0.0022
2945.00,0.0022
2944.00,0.0023
2943.00,0.0023
2942.00,0.0023
2941.00,0.0023
2940.00,0.0023
2939.00,0.0024
2938.00,0.0024
2937.00,0.0024
2936.00,0.0025
2935.00,0.0025
2934.00,0.0025
2933.00,0.0026
2932.00,0.0026
2931.00,0.0026
2930.00,0.0026
2929.00,0.0027
2928.00,0.0027
2927.00,0.0027
2926.00,0.0027
2925.00,0.0027
2924.00,0.0027
2923.00,0.0027
2922.00,0.0027
2921.00,0.0027
2920.00,0.0027
2919.00,0.0026
2918.00,0.0026
2917.00,0.0026
2916.00,0.0025
2915.00,0.0025
2914.00,0.0025
2913.00,0.0025
2912.00,0.0024
2911.00,0.0024
2910.00,0.0024
2909.00,0.0024
2908.00,0.0024
2907.00,0.0024
2906.00,0.0024
2905.00,0.0024
2904.00,0.0023
2903.00,0.0023
2902.00,0.0023
2901.00,0.0023
2900.00,0.0023
2899.00,0.0023
2898.00,0.0023
2897.00,0.0023
2896.00,0.0023
2895.00,0.0023
2894.00,0.0022
2893.00,0.0022
2892.00,0.0022
2891.00,0.0022
2890.00,0.0022
2889.00,0.0022
2888.00,0.0022
2887.00,0.0022
2886.00,0.0022
2885.00,0.0022
2884.00,0.0022
2883.00,0.0022
2882.00,0.0022
2881.00,0.0022
2880.00,0.0022
2879.00,0.0022
2878.00,0.0023
2877.00,0.0023
2876.00,0.0023
2875.00,0.0023
2874.00,0.0022
2873.00,0.0022
2872.00,0.0022
2871.00,0.0022
2870.00,0.0022
2869.00,0.0022
2868.00,0.0022
2867.00,0.0022
2866.00,0.0022
2865.00,0.0022
2864.00,0.0022
2863.00,0.0022
2862.00,0.0022
2861.00,0.0023
2860.00,0.0023
2859.00,0.0023
2858.00,0.0023
2857.00,0.0023
2856.00,0.0023
2855.00,0.0023
2854.00,0.0023
2853.00,0.0023
2852.00,0.0023
2851.00,0.0023
2850.00,0.0022
2849.00,0.0022
2848.00,0.0022
2847.00,0.0022
2846.00,0.0022
2845.00,0.0022
2844.00,0.0022
2843.00,0.0022
2842.00,0.0022
2841.00,0.0022
2840.00,0.0021
2839.00,0.0021
2838.00,0.0021
2837.00,0.0021
2836.00,0.0021
2835.00,0.0021
2834.00,0.0021
2833.00,0.0021
2832.00,0.0021
2831.00,0.0021
2830.00,0.0021
2829.00,0.0021
2828.00,0.0021
2827.00,0.0021
2826.00,0.0021
2825.00,0.0021
2824.00,0.0021
2823.00,0.0021
2822.00,0.0021
2821.00,0.0021
2820.00,0.0021
2819.00,0.0021
2818.00,0.0021
2817.00,0.0021
2816.00,0.0021
2815.00,0.0021
2814.00,0.0021
2813.00,0.0021
2812.00,0.0021
2811.00,0.0021
2810.00,0.0021
2809.00,0.0021
2808.00,0.0021
2807.00,0.0021
2806.00,0.0021
2805.00,0.0021
2804.00,0.0021
2803.00,0.0021
2802.00,0.0021
2801.00,0.0021
2800.00,0.0021
2799.00,0.0021
2798.00,0.0021
2797.00,0.0021
2796.00,0.0021
2795.00,0.0021
2794.00,0.0020
2793.00,0.0020
2792.00,0.0020
2791.00,0.0020
2790.00,0.0020
2789.00,0.0020
2788.00,0.0020
2787.00,0.0020
2786.00,0.0020
2785.00,0.0020
2784.00,0.0020
2783.00,0.0020
2782.00,0.0020
2781.00,0.0020
2780.00,0.0020
2779.00,0.0020
2778.00,0.0020
2777.00,0.0020
2776.00,0.0020
2775.00,0.0020
2774.00,0.0020
2773.00,0.0020
2772.00,0.0020
2771.00,0.0020
2770.00,0.0020
2769.00,0.0020
2768.00,0.0020
2767.00,0.0020
2766.00,0.0020
2765.00,0.0020
2764.00,0.0020
2763.00,0.0020
2762.00,0.0020
2761.00,0.0020
2760.00,0.0020
2759.00,0.0020
2758.00,0.0020
2757.00,0.0020
2756.00,0.0020
2755.00,0.0020
2754.00,0.0020
2753.00,0.0020
2752.00,0.0020
2751.00,0.0020
2750.00,0.0020
2749.00,0.0020
2748.00,0.0020
2747.00,0.0020
2746.00,0.0020
2745.00,0.0019
2744.00,0.0019
2743.00,0.0020
2742.00,0.0020
2741.00,0.0020
2740.00,0.0020
2739.00,0.0020
2738.00,0.0020
2737.00,0.0020
2736.00,0.0019
2735.00,0.0019
2734.00,0.0019
2733.00,0.0019
2732.00,0.0019
2731.00,0.0019
2730.00,0.0019
2729.00,0.0019
2728.00,0.0019
2727.00,0.0019
2726.00,0.0019
2725.00,0.0019
2724.00,0.0019
2723.00,0.0019
2722.00,0.0019
2721.00,0.0019
2720.00,0.0019
2719.00,0.0019
2718.00,0.0019
2717.00,0.0019
2716.00,0.0019
2715.00,0.0019
2714.00,0.0019
2713.00,0.0019
2712.00,0.0019
2711.00,0.0019
2710.00,0.0019
2709.00,0.0019
2708.00,0.0019
2707.00,0.0019
2706.00,0.0019
2705.00,0.0019
2704.00,0.0019
2703.00,0.0019
2702.00,0.0019
2701.00,0.0019
2700.00,0.0019
2699.00,0.0019
2698.00,0.0019
2697.00,0.0019
2696.00,0.0019
2695.00,0.0019
2694.00,0.0019
2693.00,0.0019
2692.00,0.0019
2691.00,0.0019
2690.00,0.0019
2689.00,0.0019
2688.00,0.0019
2687.00,0.0019
2686.00,0.0019
2685.00,0.0019
2684.00,0.0019
2683.00,0.0019
2682.00,0.0019
2681.00,0.0019
2680.00,0.0019
2679.00,0.0019
2678.00,0.0019
2677.00,0.0019
2676.00,0.0019
2675.00,0.0019
2674.00,0.0019
2673.00,0.0019
2672.00,0.0019
2671.00,0.0019
2670.00,0.0019
2669.00,0.0019
2668.00,0.0019
2667.00,0.0019
2666.00,0.0020
2665.00,0.0020
2664.00,0.0021
2663.00,0.0021
2662.00,0.0022
2661.00,0.0022
2660.00,0.0022
2659.00,0.0023
2658.00,0.0023
2657.00,0.0023
2656.00,0.0023
2655.00,0.0023
2654.00,0.0023
2653.00,0.0023
2652.00,0.0023
2651.00,0.0023
2650.00,0.0023
2649.00,0.0023
2648.00,0.0023
2647.00,0.0023
2646.00,0.0023
2645.00,0.0023
2644.00,0.0023
2643.00,0.0023
2642.00,0.0023
2641.00,0.0023
2640.00,0.0023
2639.00,0.0023
2638.00,0.0023
2637.00,0.0023
2636.00,0.0023
2635.00,0.0023
2634.00,0.0023
2633.00,0.0023
2632.00,0.0023
2631.00,0.0023
2630.00,0.0023
2629.00,0.0022
2628.00,0.0022
2627.00,0.0022
2626.00,0.0022
2625.00,0.0022
2624.00,0.0022
2623.00,0.0022
2622.00,0.0022
2621.00,0.0022
2620.00,0.0022
2619.00,0.0022
2618.00,0.0022
2617.00,0.0021
2616.00,0.0021
2615.00,0.0021
2614.00,0.0021
2613.00,0.0021
2612.00,0.0021
2611.00,0.0021
2610.00,0.0021
2609.00,0.0021
2608.00,0.0021
2607.00,0.0021
2606.00,0.0020
2605.00,0.0020
2604.00,0.0020
2603.00,0.0020
2602.00,0.0020
2601.00,0.0020
2600.00,0.0020
2599.00,0.0020
2598.00,0.0020
2597.00,0.0020
2596.00,0.0020
2595.00,0.0020
2594.00,0.0020
2593.00,0.0020
2592.00,0.0019
2591.00,0.0019
2590.00,0.0019
2589.00,0.0019
2588.00,0.0019
2587.00,0.0019
2586.00,0.0019
2585.00,0.0019
2584.00,0.0019
2583.00,0.0019
2582.00,0.0019
2581.00,0.0018
2580.00,0.0018
2579.00,0.0019
2578.00,0.0019
2577.00,0.0019
2576.00,0.0019
2575.00,0.0018
2574.00,0.0018
2573.00,0.0018
2572.00,0.0018
2571.00,0.0018
2570.00,0.0018
2569.00,0.0018
2568.00,0.0018
2567.00,0.0018
2566.00,0.0018
2565.00,0.0018
2564.00,0.0018
2563.00,0.0017
2562.00,0.0017
2561.00,0.0017
2560.00,0.0017
2559.00,0.0017
2558.00,0.0017
2557.00,0.0017
2556.00,0.0017
2555.00,0.0017
2554.00,0.0017
2553.00,0.0017
2552.00,0.0017
2551.00,0.0017
2550.00,0.0017
2549.00,0.0017
2548.00,0.0017
2547.00,0.0017
2546.00,0.0017
2545.00,0.0017
2544.00,0.0017
2543.00,0.0017
2542.00,0.0017
2541.00,0.0017
2540.00,0.0017
2539.00,0.0017
2538.00,0.0017
2537.00,0.0017
2536.00,0.0017
2535.00,0.0017
2534.00,0.0017
2533.00,0.0017
2532.00,0.0016
2531.00,0.0016
2530.00,0.0016
2529.00,0.0016
2528.00,0.0016
2527.00,0.0016
2526.00,0.0016
2525.00,0.0016
2524.00,0.0016
2523.00,0.0016
2522.00,0.0016
2521.00,0.0016
2520.00,0.0015
2519.00,0.0015
2518.00,0.0016
2517.00,0.0016
2516.00,0.0016
2515.00,0.0016
2514.00,0.0016
2513.00,0.0016
2512.00,0.0015
2511.00,0.0015
2510.00,0.0016
2509.00,0.0016
2508.00,0.0016
2507.00,0.0016
2506.00,0.0016
2505.00,0.0016
2504.00,0.0016
2503.00,0.0016
2502.00,0.0016
2501.00,0.0016
2500.00,0.0016
2499.00,0.0015
2498.00,0.0015
2497.00,0.0015
2496.00,0.0015
2495.00,0.0015
2494.00,0.0015
2493.00,0.0015
2492.00,0.0015
2491.00,0.0015
2490.00,0.0015
2489.00,0.0015
2488.00,0.0015
2487.00,0.0015
2486.00,0.0015
2485.00,0.0015
2484.00,0.0015
2483.00,0.0015
2482.00,0.0015
2481.00,0.0015
2480.00,0.0015
2479.00,0.0015
2478.00,0.0015
2477.00,0.0015
2476.00,0.0015
2475.00,0.0015
2474.00,0.0015
2473.00,0.0015
2472.00,0.0015
2471.00,0.0015
2470.00,0.0015
2469.00,0.0015
2468.00,0.0015
2467.00,0.0015
2466.00,0.0015
2465.00,0.0015
2464.00,0.0015
2463.00,0.0015
2462.00,0.0016
2461.00,0.0016
2460.00,0.0016
2459.00,0.0016
2458.00,0.0016
2457.00,0.0017
2456.00,0.0017
2455.00,0.0017
2454.00,0.0017
2453.00,0.0016
2452.00,0.0016
2451.00,0.0016
2450.00,0.0016
2449.00,0.0016
2448.00,0.0016
2447.00,0.0016
2446.00,0.0016
2445.00,0.0015
2444.00,0.0015
2443.00,0.0015
2442.00,0.0015
2441.00,0.0015
2440.00,0.0014
2439.00,0.0014
2438.00,0.0014
2437.00,0.0015
2436.00,0.0015
2435.00,0.0014
2434.00,0.0014
2433.00,0.0014
2432.00,0.0014
2431.00,0.0014
2430.00,0.0014
2429.00,0.0014
2428.00,0.0014
2427.00,0.0014
2426.00,0.0014
2425.00,0.0013
2424.00,0.0013
2423.00,0.0013
2422.00,0.0013
2421.00,0.0013
2420.00,0.0013
2419.00,0.0013
2418.00,0.0013
2417.00,0.0013
2416.00,0.0013
2415.00,0.0013
2414.00,0.0013
2413.00,0.0013
2412.00,0.0013
2411.00,0.0013
2410.00,0.0013
2409.00,0.0013
2408.00,0.0012
2407.00,0.0012
2406.00,0.0012
2405.00,0.0012
2404.00,0.0011
2403.00,0.0011
2402.00,0.0011
2401.00,0.0011
2400.00,0.0011
2399.00,0.0011
2398.00,0.0011
2397.00,0.0011
2396.00,0.0011
2395.00,0.0011
2394.00,0.0011
2393.00,0.0011
2392.00,0.0011
2391.00,0.0011
2390.00,0.0011
2389.00,0.0011
2388.00,0.0010
2387.00,0.0010
2386.00,0.0010
2385.00,0.0009
2384.00,0.0009
2383.00,0.0008
2382.00,0.0008
2381.00,0.0007
2380.00,0.0007
2379.00,0.0007
2378.00,0.0007
2377.00,0.0007
2376.00,0.0007
2375.00,0.0007
2374.00,0.0007
2373.00,0.0007
2372.00,0.0007
2371.00,0.0006
2370.00,0.0006
2369.00,0.0006
2368.00,0.0006
2367.00,0.0006
2366.00,0.0006
2365.00,0.0007
2364.00,0.0007
2363.00,0.0007
2362.00,0.0007
2361.00,0.0007
2360.00,0.0007
2359.00,0.0007
2358.00,0.0007
2357.00,0.0007
2356.00,0.0008
2355.00,0.0008
2354.00,0.0008
2353.00,0.0008
2352.00,0.0008
2351.00,0.0007
2350.00,0.0008
2349.00,0.0008
2348.00,0.0009
2347.00,0.0010
2346.00,0.0010
2345.00,0.0010
2344.00,0.0010
2343.00,0.0010
2342.00,0.0011
2341.00,0.0011
2340.00,0.0011
2339.00,0.0012
2338.00,0.0012
2337.00,0.0012
2336.00,0.0012
2335.00,0.0012
2334.00,0.0012
2333.00,0.0011
2332.00,0.0011
2331.00,0.0011
2330.00,0.0012
2329.00,0.0013
2328.00,0.0016
2327.00,0.0020
2326.00,0.0023
2325.00,0.0025
2324.00,0.0024
2323.00,0.0023
2322.00,0.0021
2321.00,0.0019
2320.00,0.0018
2319.00,0.0017
2318.00,0.0017
2317.00,0.0017
2316.00,0.0017
2315.00,0.0016
2314.00,0.0016
2313.00,0.0015
2312.00,0.0015
2311.00,0.0014
2310.00,0.0014
2309.00,0.0014
2308.00,0.0014
2307.00,0.0015
2306.00,0.0015
2305.00,0.0015
2304.00,0.0016
2303.00,0.0016
2302.00,0.0016
2301.00,0.0017
2300.00,0.0017
2299.00,0.0017
2298.00,0.0018
2297.00,0.0019
2296.00,0.0019
2295.00,0.0020
2294.00,0.0021
2293.00,0.0021
2292.00,0.0022
2291.00,0.0023
2290.00,0.0023
2289.00,0.0024
2288.00,0.0025
2287.00,0.0025
2286.00,0.0024
2285.00,0.0024
2284.00,0.0023
2283.00,0.0022
2282.00,0.0022
2281.00,0.0022
2280.00,0.0021
2279.00,0.0021
2278.00,0.0021
2277.00,0.0020
2276.00,0.0020
2275.00,0.0020
2274.00,0.0020
2273.00,0.0020
2272.00,0.0019
2271.00,0.0019
2270.00,0.0018
2269.00,0.0018
2268.00,0.0018
2267.00,0.0017
2266.00,0.0017
2265.00,0.0017
2264.00,0.0017
2263.00,0.0017
2262.00,0.0017
2261.00,0.0018
2260.00,0.0018
2259.00,0.0018
2258.00,0.0018
2257.00,0.0017
2256.00,0.0016
2255.00,0.0015
2254.00,0.0015
2253.00,0.0015
2252.00,0.0016
2251.00,0.0016
2250.00,0.0016
2249.00,0.0016
2248.00,0.0016
2247.00,0.0016
2246.00,0.0016
2245.00,0.0016
2244.00,0.0016
2243.00,0.0016
2242.00,0.0016
2241.00,0.0016
2240.00,0.0016
2239.00,0.0017
2238.00,0.0017
2237.00,0.0017
2236.00,0.0017
2235.00,0.0017
2234.00,0.0017
2233.00,0.0017
2232.00,0.0017
2231.00,0.0017
2230.00,0.0017
2229.00,0.0016
2228.00,0.0016
2227.00,0.0016
2226.00,0.0016
2225.00,0.0016
2224.00,0.0016
2223.00,0.0016
2222.00,0.0015
2221.00,0.0015
2220.00,0.0015
2219.00,0.0015
2218.00,0.0014
2217.00,0.0014
2216.00,0.0014
2215.00,0.0014
2214.00,0.0014
2213.00,0.0015
2212.00,0.0015
2211.00,0.0015
2210.00,0.0015
2209.00,0.0015
2208.00,0.0016
2207.00,0.0015
2206.00,0.0015
2205.00,0.0015
2204.00,0.0015
2203.00,0.0015
2202.00,0.0015
2201.00,0.0015
2200.00,0.0015
2199.00,0.0016
2198.00,0.0015
2197.00,0.0015
2196.00,0.0015
2195.00,0.0016
2194.00,0.0016
2193.00,0.0017
2192.00,0.0017
2191.00,0.0017
2190.00,0.0018
2189.00,0.0018
2188.00,0.0018
2187.00,0.0018
2186.00,0.0017
2185.00,0.0016
2184.00,0.0015
2183.00,0.0013
2182.00,0.0012
2181.00,0.0012
2180.00,0.0013
2179.00,0.0013
2178.00,0.0013
2177.00,0.0011
2176.00,0.0010
2175.00,0.0010
2174.00,0.0011
2173.00,0.0013
2172.00,0.0015
2171.00,0.0017
2170.00,0.0020
2169.00,0.0021
2168.00,0.0023
2167.00,0.0023
2166.00,0.0023
2165.00,0.0024
2164.00,0.0025
2163.00,0.0025
2162.00,0.0021
2161.00,0.0013
2160.00,0.0001
2159.00,-0.0010
2158.00,-0.0015
2157.00,-0.0016
2156.00,-0.0013
2155.00,-0.0010
2154.00,-0.0008
2153.00,-0.0006
2152.00,-0.0005
2151.00,-0.0003
2150.00,-0.0002
2149.00,-0.0002
2148.00,-0.0002
2147.00,-0.0002
2146.00,-0.0002
2145.00,-0.0002
2144.00,-0.0001
2143.00,-0.0001
2142.00,-0.0001
2141.00,-0.0001
2140.00,-0.0001
2139.00,-0.0001
2138.00,-0.0002
2137.00,-0.0004
2136.00,-0.0006
2135.00,-0.0008
2134.00,-0.0008
2133.00,-0.0007
2132.00,-0.0005
2131.00,-0.0003
2130.00,-0.0002
2129.00,-0.0000
2128.00,0.0000
2127.00,0.0001
2126.00,0.0001
2125.00,0.0002
2124.00,0.0003
2123.00,0.0005
2122.00,0.0006
2121.00,0.0007
2120.00,0.0008
2119.00,0.0009
2118.00,0.0010
2117.00,0.0011
2116.00,0.0011
2115.00,0.0012
2114.00,0.0012
2113.00,0.0012
2112.00,0.0012
2111.00,0.0012
2110.00,0.0012
2109.00,0.0012
2108.00,0.0012
2107.00,0.0011
2106.00,0.0011
2105.00,0.0011
2104.00,0.0011
2103.00,0.0010
2102.00,0.0010
2101.00,0.0010
2100.00,0.0010
2099.00,0.0010
2098.00,0.0009
2097.00,0.0008
2096.00,0.0007
2095.00,0.0007
2094.00,0.0007
2093.00,0.0008
2092.00,0.0009
2091.00,0.0010
2090.00,0.0010
2089.00,0.0011
2088.00,0.0011
2087.00,0.0011
2086.00,0.0012
2085.00,0.0012
2084.00,0.0013
2083.00,0.0014
2082.00,0.0014
2081.00,0.0013
2080.00,0.0013
2079.00,0.0013
2078.00,0.0013
2077.00,0.0013
2076.00,0.0013
2075.00,0.0013
2074.00,0.0013
2073.00,0.0013
2072.00,0.0013
2071.00,0.0013
2070.00,0.0012
2069.00,0.0012
2068.00,0.0011
2067.00,0.0011
2066.00,0.0011
2065.00,0.0011
2064.00,0.0011
2063.00,0.0011
2062.00,0.0011
2061.00,0.0011
2060.00,0.0011
2059.00,0.0012
2058.00,0.0013
2057.00,0.0013
2056.00,0.0013
2055.00,0.0014
2054.00,0.0017
2053.00,0.0021
2052.00,0.0024
2051.00,0.0025
2050.00,0.0022
2049.00,0.0018
2048.00,0.0015
2047.00,0.0013
2046.00,0.0013
2045.00,0.0013
2044.00,0.0014
2043.00,0.0015
2042.00,0.0015
2041.00,0.0015
2040.00,0.0015
2039.00,0.0015
2038.00,0.0015
2037.00,0.0015
2036.00,0.0014
2035.00,0.0013
2034.00,0.0011
2033.00,0.0009
2032.00,0.0008
2031.00,0.0007
2030.00,0.0006
2029.00,0.0006
2028.00,0.0006
2027.00,0.0006
2026.00,0.0006
2025.00,0.0005
2024.00,0.0005
2023.00,0.0005
2022.00,0.0005
2021.00,0.0005
2020.00,0.0005
2019.00,0.0005
2018.00,0.0005
2017.00,0.0005
2016.00,0.0005
2015.00,0.0006
2014.00,0.0007
2013.00,0.0006
2012.00,0.0006
2011.00,0.0007
2010.00,0.0007
2009.00,0.0007
2008.00,0.0004
2007.00,0.0001
2006.00,-0.0001
2005.00,-0.0002
2004.00,-0.0001
2003.00,0.0000
2002.00,0.0001
2001.00,0.0003
2000.00,0.0004
1999.00,0.0006
1998.00,0.0007
1997.00,0.0008
1996.00,0.0008
1995.00,0.0009
1994.00,0.0009
1993.00,0.0009
1992.00,0.0010
1991.00,0.0011
1990.00,0.0011
1989.00,0.0012
1988.00,0.0012
1987.00,0.0012
1986.00,0.0013
1985.00,0.0015
1984.00,0.0017
1983.00,0.0020
1982.00,0.0022
1981.00,0.0022
1980.00,0.0019
1979.00,0.0014
1978.00,0.0008
1977.00,0.0004
1976.00,0.0001
1975.00,0.0001
1974.00,0.0000
1973.00,-0.0000
1972.00,-0.0000
1971.00,-0.0000
1970.00,-0.0000
1969.00,0.0000
1968.00,0.0000
1967.00,0.0000
1966.00,-0.0000
1965.00,-0.0001
1964.00,-0.0001
1963.00,-0.0001
1962.00,-0.0002
1961.00,-0.0003
1960.00,-0.0004
1959.00,-0.0004
1958.00,-0.0004
1957.00,-0.0003
1956.00,-0.0002
1955.00,-0.0001
1954.00,-0.0001
1953.00,-0.0000
1952.00,0.0000
1951.00,0.0000
1950.00,0.0000
1949.00,0.0000
1948.00,0.0000
1947.00,0.0001
1946.00,0.0001
1945.00,0.0001
1944.00,0.0001
1943.00,0.0002
1942.00,0.0002
1941.00,0.0002
1940.00,0.0002
1939.00,0.0001
1938.00,0.0001
1937.00,0.0001
1936.00,0.0001
1935.00,0.0001
1934.00,0.0001
1933.00,0.0001
1932.00,0.0001
1931.00,0.0001
1930.00,0.0001
1929.00,0.0001
1928.00,0.0001
1927.00,0.0001
1926.00,0.0001
1925.00,0.0002
1924.00,0.0003
1923.00,0.0004
1922.00,0.0004
1921.00,0.0004
1920.00,0.0004
1919.00,0.0004
1918.00,0.0004
1917.00,0.0004
1916.00,0.0004
1915.00,0.0004
1914.00,0.0004
1913.00,0.0004
1912.00,0.0005
1911.00,0.0005
1910.00,0.0005
1909.00,0.0005
1908.00,0.0005
1907.00,0.0004
1906.00,0.0004
1905.00,0.0004
1904.00,0.0004
1903.00,0.0004
1902.00,0.0004
1901.00,0.0004
1900.00,0.0004
1899.00,0.0004
1898.00,0.0004
1897.00,0.0004
1896.00,0.0004
1895.00,0.0005
1894.00,0.0005
1893.00,0.0005
1892.00,0.0004
1891.00,0.0004
1890.00,0.0004
1889.00,0.0004
1888.00,0.0004
1887.00,0.0005
1886.00,0.0005
1885.00,0.0005
1884.00,0.0005
1883.00,0.0005
1882.00,0.0005
1881.00,0.0005
1880.00,0.0005
1879.00,0.0005
1878.00,0.0005
1877.00,0.0005
1876.00,0.0005
1875.00,0.0005
1874.00,0.0005
1873.00,0.0005
1872.00,0.0005
1871.00,0.0005
1870.00,0.0005
1869.00,0.0005
1868.00,0.0005
1867.00,0.0005
1866.00,0.0005
1865.00,0.0005
1864.00,0.0005
1863.00,0.0005
1862.00,0.0005
1861.00,0.0006
1860.00,0.0006
1859.00,0.0006
1858.00,0.0006
1857.00,0.0005
1856.00,0.0005
1855.00,0.0005
1854.00,0.0005
1853.00,0.0005
1852.00,0.0005
1851.00,0.0005
1850.00,0.0005
1849.00,0.0005
1848.00,0.0005
1847.00,0.0005
1846.00,0.0005
1845.00,0.0005
1844.00,0.0005
1843.00,0.0005
1842.00,0.0005
1841.00,0.0005
1840.00,0.0005
1839.00,0.0005
1838.00,0.0005
1837.00,0.0005
1836.00,0.0005
1835.00,0.0005
1834.00,0.0005
1833.00,0.0006
1832.00,0.0006
1831.00,0.0006
1830.00,0.0006
1829.00,0.0006
1828.00,0.0005
1827.00,0.0006
1826.00,0.0006
1825.00,0.0006
1824.00,0.0006
1823.00,0.0006
1822.00,0.0006
1821.00,0.0005
1820.00,0.0005
1819.00,0.0004
1818.00,0.0004
1817.00,0.0003
1816.00,0.0004
1815.00,0.0004
1814.00,0.0005
1813.00,0.0005
1812.00,0.0006
1811.00,0.0006
1810.00,0.0006
1809.00,0.0006
1808.00,0.0006
1807.00,0.0006
1806.00,0.0006
1805.00,0.0006
1804.00,0.0007
1803.00,0.0007
1802.00,0.0007
1801.00,0.0007
1800.00,0.0007
1799.00,0.0007
1798.00,0.0007
1797.00,0.0007
1796.00,0.0007
1795.00,0.0007
1794.00,0.0007
1793.00,0.0007
1792.00,0.0007
1791.00,0.0007
1790.00,0.0007
1789.00,0.0007
1788.00,0.0007
1787.00,0.0007
1786.00,0.0007
1785.00,0.0007
1784.00,0.0007
1783.00,0.0007
1782.00,0.0007
1781.00,0.0008
1780.00,0.0007
1779.00,0.0007
1778.00,0.0007
1777.00,0.0007
1776.00,0.0007
1775.00,0.0007
1774.00,0.0007
1773.00,0.0007
1772.00,0.0006
1771.00,0.0006
1770.00,0.0007
1769.00,0.0007
1768.00,0.0007
1767.00,0.0007
1766.00,0.0008
1765.00,0.0008
1764.00,0.0008
1763.00,0.0008
1762.00,0.0008
1761.00,0.0008
1760.00,0.0008
1759.00,0.0008
1758.00,0.0008
1757.00,0.0008
1756.00,0.0008
1755.00,0.0008
1754.00,0.0008
1753.00,0.0008
1752.00,0.0008
1751.00,0.0008
1750.00,0.0008
1749.00,0.0008
1748.00,0.0009
1747.00,0.0009
1746.00,0.0009
1745.00,0.0009
1744.00,0.0008
1743.00,0.0008
1742.00,0.0008
1741.00,0.0007
1740.00,0.0007
1739.00,0.0006
1738.00,0.0006
1737.00,0.0006
1736.00,0.0005
1735.00,0.0005
1734.00,0.0005
1733.00,0.0005
1732.00,0.0006
1731.00,0.0006
1730.00,0.0007
1729.00,0.0007
1728.00,0.0007
1727.00,0.0008
1726.00,0.0008
1725.00,0.0008
1724.00,0.0009
1723.00,0.0009
1722.00,0.0009
1721.00,0.0009
1720.00,0.0009
1719.00,0.0009
1718.00,0.0009
1717.00,0.0009
1716.00,0.0010
1715.00,0.0010
1714.00,0.0011
1713.00,0.0011
1712.00,0.0012
1711.00,0.0013
1710.00,0.0014
1709.00,0.0014
1708.00,0.0016
1707.00,0.0017
1706.00,0.0019
1705.00,0.0021
1704.00,0.0023
1703.00,0.0024
1702.00,0.0026
1701.00,0.0027
1700.00,0.0030
1699.00,0.0032
1698.00,0.0033
1697.00,0.0034
1696.00,0.0035
1695.00,0.0037
1694.00,0.0038
1693.00,0.0038
1692.00,0.0039
1691.00,0.0041
1690.00,0.0042
1689.00,0.0043
1688.00,0.0044
1687.00,0.0045
1686.00,0.0045
1685.00,0.0047
1684.00,0.0049
1683.00,0.0052
1682.00,0.0053
1681.00,0.0055
1680.00,0.0056
1679.00,0.0058
1678.00,0.0059
1677.00,0.0060
1676.00,0.0062
1675.00,0.0064
1674.00,0.0066
1673.00,0.0067
1672.00,0.0069
1671.00,0.0070
1670.00,0.0073
1669.00,0.0075
1668.00,0.0077
1667.00,0.0079
1666.00,0.0081
1665.00,0.0082
1664.00,0.0084
1663.00,0.0087
1662.00,0.0089
1661.00,0.0091
1660.00,0.0093
1659.00,0.0094
1658.00,0.0095
1657.00,0.0095
1656.00,0.0096
1655.00,0.0096
1654.00,0.0097
1653.00,0.0100
1652.00,0.0101
1651.00,0.0102
1650.00,0.0101
1649.00,0.0101
1648.00,0.0101
1647.00,0.0101
1646.00,0.0101
1645.00,0.0101
1644.00,0.0101
1643.00,0.0101
1642.00,0.0101
1641.00,0.0101
1640.00,0.0100
1639.00,0.0099
1638.00,0.0098
1637.00,0.0098
1636.00,0.0098
1635.00,0.0098
1634.00,0.0098
1633.00,0.0098
1632.00,0.0097
1631.00,0.0096
1630.00,0.0095
1629.00,0.0094
1628.00,0.0093
1627.00,0.0092
1626.00,0.0091
1625.00,0.0089
1624.00,0.0087
1623.00,0.0085
1622.00,0.0083
1621.00,0.0080
1620.00,0.0078
1619.00,0.0075
1618.00,0.0073
1617.00,0.0070
1616.00,0.0068
1615.00,0.0066
1614.00,0.0064
1613.00,0.0062
1612.00,0.0060
1611.00,0.0058
1610.00,0.0056
1609.00,0.0055
1608.00,0.0053
1607.00,0.0051
1606.00,0.0050
1605.00,0.0048
1604.00,0.0047
1603.00,0.0046
1602.00,0.0045
1601.00,0.0044
1600.00,0.0043
1599.00,0.0042
1598.00,0.0042
1597.00,0.0041
1596.00,0.0041
1595.00,0.0040
1594.00,0.0040
1593.00,0.0039
1592.00,0.0039
1591.00,0.0038
1590.00,0.0038
1589.00,0.0038
1588.00,0.0037
1587.00,0.0037
1586.00,0.0037
1585.00,0.0037
1584.00,0.0037
1583.00,0.0037
1582.00,0.0038
1581.00,0.0038
1580.00,0.0038
1579.00,0.0038
1578.00,0.0039
1577.00,0.0039
1576.00,0.0040
1575.00,0.0041
1574.00,0.0042
1573.00,0.0042
1572.00,0.0043
1571.00,0.0043
1570.00,0.0045
1569.00,0.0046
1568.00,0.0047
1567.00,0.0048
1566.00,0.0049
1565.00,0.0051
1564.00,0.0052
1563.00,0.0053
1562.00,0.0053
1561.00,0.0053
1560.00,0.0055
1559.00,0.0057
1558.00,0.0060
1557.00,0.0062
1556.00,0.0063
1555.00,0.0065
1554.00,0.0066
1553.00,0.0068
1552.00,0.0069
1551.00,0.0071
1550.00,0.0072
1549.00,0.0074
1548.00,0.0075
1547.00,0.0075
1546.00,0.0076
1545.00,0.0077
1544.00,0.0078
1543.00,0.0079
1542.00,0.0079
1541.00,0.0080
1540.00,0.0082
1539.00,0.0083
1538.00,0.0085
1537.00,0.0085
1536.00,0.0086
1535.00,0.0086
1534.00,0.0087
1533.00,0.0089
1532.00,0.0090
1531.00,0.0090
1530.00,0.0091
1529.00,0.0091
1528.00,0.0092
1527.00,0.0092
1526.00,0.0093
1525.00,0.0093
1524.00,0.0094
1523.00,0.0094
1522.00,0.0095
1521.00,0.0097
1520.00,0.0098
1519.00,0.0099
1518.00,0.0099
1517.00,0.0099
1516.00,0.0100
1515.00,0.0099
1514.00,0.0099
1513.00,0.0097
1512.00,0.0096
1511.00,0.0094
1510.00,0.0093
1509.00,0.0091
1508.00,0.0088
1507.00,0.0087
1506.00,0.0085
1505.00,0.0083
1504.00,0.0081
1503.00,0.0080
1502.00,0.0078
1501.00,0.0076
1500.00,0.0074
1499.00,0.0071
1498.00,0.0069
1497.00,0.0067
1496.00,0.0065
1495.00,0.0064
1494.00,0.0062
1493.00,0.0060
1492.00,0.0059
1491.00,0.0057
1490.00,0.0056
1489.00,0.0055
1488.00,0.0053
1487.00,0.0052
1486.00,0.0051
1485.00,0.0050
1484.00,0.0049
1483.00,0.0048
1482.00,0.0047
1481.00,0.0047
1480.00,0.0046
1479.00,0.0045
1478.00,0.0044
1477.00,0.0044
1476.00,0.0043
1475.00,0.0043
1474.00,0.0042
1473.00,0.0042
1472.00,0.0042
1471.00,0.0043
1470.00,0.0043
1469.00,0.0043
1468.00,0.0043
1467.00,0.0043
1466.00,0.0043
1465.00,0.0043
1464.00,0.0044
1463.00,0.0044
1462.00,0.0044
1461.00,0.0044
1460.00,0.0044
1459.00,0.0044
1458.00,0.0045
1457.00,0.0046
1456.00,0.0047
1455.00,0.0047
1454.00,0.0048
1453.00,0.0048
1452.00,0.0049
1451.00,0.0049
1450.00,0.0049
1449.00,0.0049
1448.00,0.0049
1447.00,0.0049
1446.00,0.0049
1445.00,0.0049
1444.00,0.0048
1443.00,0.0048
1442.00,0.0047
1441.00,0.0047
1440.00,0.0046
1439.00,0.0046
1438.00,0.0045
1437.00,0.0044
1436.00,0.0044
1435.00,0.0043
1434.00,0.0043
1433.00,0.0042
1432.00,0.0042
1431.00,0.0041
1430.00,0.0041
1429.00,0.0041
1428.00,0.0041
1427.00,0.0040
1426.00,0.0040
1425.00,0.0040
1424.00,0.0040
1423.00,0.0040
1422.00,0.0040
1421.00,0.0040
1420.00,0.0041
1419.00,0.0041
1418.00,0.0042
1417.00,0.0042
1416.00,0.0042
1415.00,0.0042
1414.00,0.0043
1413.00,0.0043
1412.00,0.0043
1411.00,0.0043
1410.00,0.0043
1409.00,0.0043
1408.00,0.0043
1407.00,0.0043
1406.00,0.0043
1405.00,0.0042
1404.00,0.0042
1403.00,0.0042
1402.00,0.0042
1401.00,0.0041
1400.00,0.0041
1399.00,0.0041
1398.00,0.0041
1397.00,0.0041
1396.00,0.0041
1395.00,0.0041
1394.00,0.0041
1393.00,0.0041
1392.00,0.0041
1391.00,0.0041
1390.00,0.0041
1389.00,0.0041
1388.00,0.0041
1387.00,0.0041
1386.00,0.0041
1385.00,0.0041
1384.00,0.0041
1383.00,0.0041
1382.00,0.0041
1381.00,0.0041
1380.00,0.0041
1379.00,0.0041
1378.00,0.0041
1377.00,0.0040
1376.00,0.0040
1375.00,0.0040
1374.00,0.0040
1373.00,0.0040
1372.00,0.0040
1371.00,0.0040
1370.00,0.0040
1369.00,0.0040
1368.00,0.0039
1367.00,0.0039
1366.00,0.0039
1365.00,0.0038
1364.00,0.0038
1363.00,0.0038
1362.00,0.0038
1361.00,0.0037
1360.00,0.0037
1359.00,0.0037
1358.00,0.0037
1357.00,0.0037
1356.00,0.0037
1355.00,0.0037
1354.00,0.0037
1353.00,0.0037
1352.00,0.0037
1351.00,0.0037
1350.00,0.0037
1349.00,0.0037
1348.00,0.0037
1347.00,0.0037
1346.00,0.0037
1345.00,0.0037
1344.00,0.0037
1343.00,0.0037
1342.00,0.0038
1341.00,0.0038
1340.00,0.0038
1339.00,0.0038
1338.00,0.0038
1337.00,0.0038
1336.00,0.0038
1335.00,0.0038
1334.00,0.0038
1333.00,0.0038
1332.00,0.0038
1331.00,0.0038
1330.00,0.0038
1329.00,0.0037
1328.00,0.0037
1327.00,0.0037
1326.00,0.0037
1325.00,0.0037
1324.00,0.0037
1323.00,0.0037
1322.00,0.0037
1321.00,0.0037
1320.00,0.0037
1319.00,0.0037
1318.00,0.0038
1317.00,0.0038
1316.00,0.0038
1315.00,0.0038
1314.00,0.0038
1313.00,0.0038
1312.00,0.0038
1311.00,0.0038
1310.00,0.0038
1309.00,0.0038
1308.00,0.0038
1307.00,0.0038
1306.00,0.0038
1305.00,0.0038
1304.00,0.0038
1303.00,0.0038
1302.00,0.0038
1301.00,0.0038
1300.00,0.0038
1299.00,0.0039
1298.00,0.0039
1297.00,0.0039
1296.00,0.0039
1295.00,0.0039
1294.00,0.0039
1293.00,0.0039
1292.00,0.0039
1291.00,0.0039
1290.00,0.0039
1289.00,0.0040
1288.00,0.0040
1287.00,0.0040
1286.00,0.0040
1285.00,0.0040
1284.00,0.0040
1283.00,0.0041
1282.00,0.0041
1281.00,0.0041
1280.00,0.0041
1279.00,0.0042
1278.00,0.0042
1277.00,0.0043
1276.00,0.0043
1275.00,0.0043
1274.00,0.0044
1273.00,0.0044
1272.00,0.0045
1271.00,0.0045
1270.00,0.0046
1269.00,0.0046
1268.00,0.0046
1267.00,0.0047
1266.00,0.0047
1265.00,0.0048
1264.00,0.0048
1263.00,0.0048
1262.00,0.0048
1261.00,0.0048
1260.00,0.0048
1259.00,0.0048
1258.00,0.0048
1257.00,0.0048
1256.00,0.0048
1255.00,0.0049
1254.00,0.0049
1253.00,0.0049
1252.00,0.0049
1251.00,0.0049
1250.00,0.0050
1249.00,0.0050
1248.00,0.0050
1247.00,0.0051
1246.00,0.0051
1245.00,0.0051
1244.00,0.0052
1243.00,0.0052
1242.00,0.0053
1241.00,0.0053
1240.00,0.0053
1239.00,0.0054
1238.00,0.0054
1237.00,0.0055
1236.00,0.0055
1235.00,0.0055
1234.00,0.0056
1233.00,0.0056
1232.00,0.0056
1231.00,0.0056
1230.00,0.0056
1229.00,0.0055
1228.00,0.0055
1227.00,0.0055
1226.00,0.0054
1225.00,0.0054
1224.00,0.0053
1223.00,0.0052
1222.00,0.0052
1221.00,0.0051
1220.00,0.0051
1219.00,0.0050
1218.00,0.0049
1217.00,0.0048
1216.00,0.0048
1215.00,0.0047
1214.00,0.0046
1213.00,0.0046
1212.00,0.0045
1211.00,0.0044
1210.00,0.0044
1209.00,0.0043
1208.00,0.0042
1207.00,0.0041
1206.00,0.0040
1205.00,0.0040
1204.00,0.0039
1203.00,0.0039
1202.00,0.0039
1201.00,0.0038
1200.00,0.0038
1199.00,0.0037
1198.00,0.0037
1197.00,0.0036
1196.00,0.0036
1195.00,0.0036
1194.00,0.0036
1193.00,0.0035
1192.00,0.0035
1191.00,0.0035
1190.00,0.0035
1189.00,0.0035
1188.00,0.0035
1187.00,0.0035
1186.00,0.0035
1185.00,0.0035
1184.00,0.0035
1183.00,0.0035
1182.00,0.0035
1181.00,0.0035
1180.00,0.0036
1179.00,0.0036
1178.00,0.0036
1177.00,0.0037
1176.00,0.0037
1175.00,0.0038
1174.00,0.0038
1173.00,0.0039
1172.00,0.0039
1171.00,0.0040
1170.00,0.0040
1169.00,0.0040
1168.00,0.0040
1167.00,0.0040
1166.00,0.0040
1165.00,0.0040
1164.00,0.0040
1163.00,0.0040
1162.00,0.0040
1161.00,0.0040
1160.00,0.0040
1159.00,0.0040
1158.00,0.0039
1157.00,0.0039
1156.00,0.0039
1155.00,0.0038
1154.00,0.0038
1153.00,0.0038
1152.00,0.0038
1151.00,0.0038
1150.00,0.0037
1149.00,0.0037
1148.00,0.0037
1147.00,0.0036
1146.00,0.0036
1145.00,0.0036
1144.00,0.0035
1143.00,0.0035
1142.00,0.0035
1141.00,0.0035
1140.00,0.0035
1139.00,0.0035
1138.00,0.0035
1137.00,0.0034
1136.00,0.0034
1135.00,0.0034
1134.00,0.0034
1133.00,0.0034
1132.00,0.0034
1131.00,0.0034
1130.00,0.0035
1129.00,0.0035
1128.00,0.0035
1127.00,0.0035
1126.00,0.0035
1125.00,0.0035
1124.00,0.0035
1123.00,0.0035
1122.00,0.0035
1121.00,0.0035
1120.00,0.0035
1119.00,0.0036
1118.00,0.0036
1117.00,0.0035
1116.00,0.0035
1115.00,0.0035
1114.00,0.0035
1113.00,0.0036
1112.00,0.0036
1111.00,0.0036
1110.00,0.0036
1109.00,0.0036
1108.00,0.0036
1107.00,0.0036
1106.00,0.0036
1105.00,0.0036
1104.00,0.0036
1103.00,0.0036
1102.00,0.0036
1101.00,0.0036
1100.00,0.0036
1099.00,0.0036
1098.00,0.0036
1097.00,0.0037
1096.00,0.0037
1095.00,0.0037
1094.00,0.0037
1093.00,0.0037
1092.00,0.0037
1091.00,0.0037
1090.00,0.0037
1089.00,0.0037
1088.00,0.0037
1087.00,0.0037
1086.00,0.0037
1085.00,0.0038
1084.00,0.0038
1083.00,0.0038
1082.00,0.0038
1081.00,0.0038
1080.00,0.0039
1079.00,0.0039
1078.00,0.0039
1077.00,0.0040
1076.00,0.0040
1075.00,0.0040
1074.00,0.0039
1073.00,0.0039
1072.00,0.0039
1071.00,0.0039
1070.00,0.0040
1069.00,0.0040
1068.00,0.0040
1067.00,0.0039
1066.00,0.0040
1065.00,0.0040
1064.00,0.0040
1063.00,0.0040
1062.00,0.0040
1061.00,0.0040
1060.00,0.0040
1059.00,0.0039
1058.00,0.0039
1057.00,0.0039
1056.00,0.0039
1055.00,0.0039
1054.00,0.0039
1053.00,0.0039
1052.00,0.0039
1051.00,0.0039
1050.00,0.0039
1049.00,0.0039
1048.00,0.0038
1047.00,0.0038
1046.00,0.0038
1045.00,0.0037
1044.00,0.0037
1043.00,0.0037
1042.00,0.0037
1041.00,0.0037
1040.00,0.0036
1039.00,0.0036
1038.00,0.0036
1037.00,0.0036
1036.00,0.0036
1035.00,0.0036
1034.00,0.0036
1033.00,0.0036
1032.00,0.0036
1031.00,0.0036
1030.00,0.0036
1029.00,0.0036
1028.00,0.0036
1027.00,0.0035
1026.00,0.0035
1025.00,0.0035
1024.00,0.0036
1023.00,0.0036
1022.00,0.0036
1021.00,0.0036
1020.00,0.0037
1019.00,0.0037
1018.00,0.0038
1017.00,0.0038
1016.00,0.0038
1015.00,0.0038
1014.00,0.0038
1013.00,0.0038
1012.00,0.0037
1011.00,0.0037
1010.00,0.0037
1009.00,0.0037
1008.00,0.0037
1007.00,0.0037
1006.00,0.0037
1005.00,0.0037
1004.00,0.0036
1003.00,0.0036
1002.00,0.0036
1001.00,0.0036
1000.00,0.0036
999.00,0.0036
998.00,0.0036
997.00,0.0035
996.00,0.0035
995.00,0.0034
994.00,0.0034
993.00,0.0034
992.00,0.0033
991.00,0.0033
990.00,0.0033
989.00,0.0033
988.00,0.0033
987.00,0.0033
986.00,0.0033
985.00,0.0033
984.00,0.0033
983.00,0.0033
982.00,0.0033
981.00,0.0033
980.00,0.0033
979.00,0.0033
978.00,0.0033
977.00,0.0033
976.00,0.0033
975.00,0.0033
974.00,0.0033
973.00,0.0033
972.00,0.0032
971.00,0.0032
970.00,0.0032
969.00,0.0032
968.00,0.0031
967.00,0.0031
966.00,0.0031
965.00,0.0031
964.00,0.0031
963.00,0.0031
962.00,0.0031
961.00,0.0031
960.00,0.0031
959.00,0.0031
958.00,0.0030
957.00,0.0031
956.00,0.0031
955.00,0.0031
954.00,0.0031
953.00,0.0031
952.00,0.0031
951.00,0.0031
950.00,0.0031
949.00,0.0031
948.00,0.0031
947.00,0.0031
946.00,0.0031
945.00,0.0030
944.00,0.0030
943.00,0.0030
942.00,0.0030
941.00,0.0030
940.00,0.0030
939.00,0.0030
938.00,0.0030
937.00,0.0030
936.00,0.0030
935.00,0.0030
934.00,0.0030
933.00,0.0030
932.00,0.0030
931.00,0.0030
930.00,0.0030
929.00,0.0030
928.00,0.0030
927.00,0.0030
926.00,0.0030
925.00,0.0030
924.00,0.0030
923.00,0.0029
922.00,0.0029
921.00,0.0029
920.00,0.0029
919.00,0.0029
918.00,0.0029
917.00,0.0028
916.00,0.0028
915.00,0.0028
914.00,0.0028
913.00,0.0028
912.00,0.0028
911.00,0.0028
910.00,0.0028
909.00,0.0028
908.00,0.0028
907.00,0.0028
906.00,0.0027
905.00,0.0027
904.00,0.0027
903.00,0.0027
902.00,0.0027
901.00,0.0027
900.00,0.0027
899.00,0.0027
898.00,0.0027
897.00,0.0027
896.00,0.0027
895.00,0.0027
894.00,0.0027
893.00,0.0027
892.00,0.0027
891.00,0.0027
890.00,0.0027
889.00,0.0027
888.00,0.0027
887.00,0.0027
886.00,0.0027
885.00,0.0027
884.00,0.0027
883.00,0.0027
882.00,0.0027
881.00,0.0027
880.00,0.0027
879.00,0.0027
878.00,0.0027
877.00,0.0027
876.00,0.0027
875.00,0.0027
874.00,0.0027
873.00,0.0027
872.00,0.0027
871.00,0.0027
870.00,0.0027
869.00,0.0027
868.00,0.0027
867.00,0.0028
866.00,0.0028
865.00,0.0028
864.00,0.0028
863.00,0.0028
862.00,0.0028
861.00,0.0028
860.00,0.0028
859.00,0.0028
858.00,0.0028
857.00,0.0028
856.00,0.0028
855.00,0.0029
854.00,0.0029
853.00,0.0029
852.00,0.0030
851.00,0.0029
850.00,0.0029
849.00,0.0029
848.00,0.0029
847.00,0.0029
846.00,0.0029
845.00,0.0029
844.00,0.0029
843.00,0.0029
842.00,0.0030
841.00,0.0030
840.00,0.0030
839.00,0.0030
838.00,0.0030
837.00,0.0030
836.00,0.0030
835.00,0.0030
834.00,0.0030
833.00,0.0031
832.00,0.0031
831.00,0.0032
830.00,0.0032
829.00,0.0031
828.00,0.0031
827.00,0.0031
826.00,0.0031
825.00,0.0031
824.00,0.0032
823.00,0.0032
822.00,0.0032
821.00,0.0032
820.00,0.0032
819.00,0.0032
818.00,0.0031
817.00,0.0031
816.00,0.0031
815.00,0.0032
814.00,0.0032
813.00,0.0033
812.00,0.0033
811.00,0.0033
810.00,0.0033
809.00,0.0033
808.00,0.0033
807.00,0.0032
806.00,0.0032
805.00,0.0032
804.00,0.0033
803.00,0.0033
802.00,0.0033
801.00,0.0033
800.00,0.0033
799.00,0.0033
798.00,0.0033
797.00,0.0033
796.00,0.0034
795.00,0.0034
794.00,0.0034
793.00,0.0034
792.00,0.0034
791.00,0.0034
790.00,0.0034
789.00,0.0034
788.00,0.0034
787.00,0.0034
786.00,0.0035
785.00,0.0035
784.00,0.0035
783.00,0.0036
782.00,0.0036
781.00,0.0036
780.00,0.0036
779.00,0.0036
778.00,0.0036
777.00,0.0037
776.00,0.0037
775.00,0.0037
774.00,0.0037
773.00,0.0037
772.00,0.0038
771.00,0.0038
770.00,0.0038
769.00,0.0038
768.00,0.0038
767.00,0.0038
766.00,0.0039
765.00,0.0039
764.00,0.0039
763.00,0.0039
762.00,0.0039
761.00,0.0039
760.00,0.0039
759.00,0.0039
758.00,0.0040
757.00,0.0040
756.00,0.0040
755.00,0.0040
754.00,0.0040
753.00,0.0041
752.00,0.0041
751.00,0.0041
750.00,0.0041
749.00,0.0042
748.00,0.0042
747.00,0.0042
746.00,0.0043
745.00,0.0043
744.00,0.0043
743.00,0.0044
742.00,0.0044
741.00,0.0045
740.00,0.0045
739.00,0.0045
738.00,0.0045
737.00,0.0046
736.00,0.0046
735.00,0.0046
734.00,0.0046
733.00,0.0046
732.00,0.0047
731.00,0.0047
730.00,0.0048
729.00,0.0048
728.00,0.0049
727.00,0.0049
726.00,0.0049
725.00,0.0050
724.00,0.0050
723.00,0.0050
722.00,0.0050
721.00,0.0051
720.00,0.0051
719.00,0.0052
718.00,0.0052
717.00,0.0053
716.00,0.0053
715.00,0.0053
714.00,0.0053
713.00,0.0053
712.00,0.0054
711.00,0.0054
710.00,0.0055
709.00,0.0055
708.00,0.0056
707.00,0.0056
706.00,0.0056
705.00,0.0056
704.00,0.0056
703.00,0.0057
702.00,0.0057
701.00,0.0057
700.00,0.0057
699.00,0.0058
698.00,0.0058
697.00,0.0058
696.00,0.0058
695.00,0.0057
694.00,0.0057
693.00,0.0057
692.00,0.0057
691.00,0.0058
690.00,0.0058
689.00,0.0058
688.00,0.0058
687.00,0.0058
686.00,0.0059
685.00,0.0059
684.00,0.0059
683.00,0.0060
682.00,0.0060
681.00,0.0060
680.00,0.0059
679.00,0.0059
678.00,0.0059
677.00,0.0060
676.00,0.0060
675.00,0.0061
674.00,0.0061
673.00,0.0060
672.00,0.0060
671.00,0.0059
670.00,0.0059
669.00,0.0060
668.00,0.0062
667.00,0.0063
666.00,0.0063
665.00,0.0062
664.00,0.0062
663.00,0.0062
662.00,0.0062
661.00,0.0062
660.00,0.0062
659.00,0.0063
658.00,0.0063
657.00,0.0063
656.00,0.0063
655.00,0.0063
654.00,0.0063
653.00,0.0063
652.00,0.0063
651.00,0.0064
650.00,0.0064
649.00,0.0063
648.00,0.0063
647.00,0.0064
646.00,0.0064
645.00,0.0064
644.00,0.0065
643.00,0.0065
642.00,0.0065
641.00,0.0065
640.00,0.0064
639.00,0.0064
638.00,0.0064
637.00,0.0064
636.00,0.0065
635.00,0.0065
634.00,0.0065
633.00,0.0065
632.00,0.0065
631.00,0.0065
630.00,0.0065
629.00,0.0065
628.00,0.0066
627.00,0.0066
626.00,0.0065
625.00,0.0065
624.00,0.0065
623.00,0.0065
622.00,0.0066
621.00,0.0066
620.00,0.0067
619.00,0.0067
618.00,0.0066
617.00,0.0066
616.00,0.0065
615.00,0.0065
614.00,0.0065
613.00,0.0065
612.00,0.0065
611.00,0.0065
610.00,0.0065
609.00,0.0066
608.00,0.0066
607.00,0.0066
606.00,0.0066
605.00,0.0066
604.00,0.0065
603.00,0.0065
602.00,0.0065
601.00,0.0065
600.00,0.0065
599.00,0.0065
598.00,0.0065
597.00,0.0065
596.00,0.0065
595.00,0.0065
594.00,0.0065
593.00,0.0065
592.00,0.0065
591.00,0.0065
590.00,0.0065
589.00,0.0065
588.00,0.0065
587.00,0.0066
586.00,0.0067
585.00,0.0067
584.00,0.0067
583.00,0.0067
582.00,0.0067
581.00,0.0066
580.00,0.0066
579.00,0.0066
578.00,0.0066
577.00,0.0067
576.00,0.0067
575.00,0.0067
574.00,0.0067
573.00,0.0067
572.00,0.0068
571.00,0.0068
570.00,0.0069
569.00,0.0069
568.00,0.0070
567.00,0.0070
566.00,0.0071
565.00,0.0071
564.00,0.0072
563.00,0.0073
562.00,0.0073
561.00,0.0073
560.00,0.0073
559.00,0.0073
558.00,0.0073
557.00,0.0073
556.00,0.0073
555.00,0.0073
554.00,0.0073
553.00,0.0074
552.00,0.0074
551.00,0.0075
550.00,0.0075
549.00,0.0075
548.00,0.0074
547.00,0.0074
546.00,0.0073
545.00,0.0073
544.00,0.0073
543.00,0.0073
542.00,0.0072
541.00,0.0072
540.00,0.0071
539.00,0.0071
538.00,0.0070
537.00,0.0070
536.00,0.0070
535.00,0.0070
534.00,0.0070
533.00,0.0070
532.00,0.0070
531.00,0.0070
530.00,0.0070
529.00,0.0070
528.00,0.0070
527.00,0.0069
526.00,0.0069
525.00,0.0070
524.00,0.0070
523.00,0.0070
522.00,0.0070
521.00,0.0070
520.00,0.0070
519.00,0.0070
518.00,0.0070
517.00,0.0071
516.00,0.0071
515.00,0.0071
514.00,0.0071
513.00,0.0070
512.00,0.0070
511.00,0.0069
510.00,0.0068
509.00,0.0067
508.00,0.0067
507.00,0.0068
506.00,0.0070
505.00,0.0070
504.00,0.0070
503.00,0.0069
502.00,0.0067
501.00,0.0066
500.00,0.0066
499.00,0.0066
498.00,0.0066
497.00,0.0066
496.00,0.0067
495.00,0.0068
494.00,0.0069
493.00,0.0070
492.00,0.0070
491.00,0.0070
490.00,0.0069
489.00,0.0068
488.00,0.0067
487.00,0.0067
486.00,0.0066
485.00,0.0066
484.00,0.0066
483.00,0.0066
482.00,0.0066
481.00,0.0066
480.00,0.0067
479.00,0.0067
478.00,0.0067
477.00,0.0067
476.00,0.0066
475.00,0.0065
474.00,0.0065
473.00,0.0065
472.00,0.0066
471.00,0.0068
470.00,0.0069
469.00,0.0069
468.00,0.0068
467.00,0.0067
466.00,0.0066
465.00,0.0065
464.00,0.0065
463.00,0.0065
462.00,0.0065
461.00,0.0064
460.00,0.0063
459.00,0.0062
458.00,0.0063
457.00,0.0065
456.00,0.0067
455.00,0.0067
454.00,0.0066
453.00,0.0064
452.00,0.0063
451.00,0.0063
450.00,0.0063
449.00,0.0064
448.00,0.0064
447.00,0.0064
446.00,0.0063
445.00,0.0062
444.00,0.0061
443.00,0.0062
442.00,0.0063
441.00,0.0063
440.00,0.0063
439.00,0.0062
438.00,0.0061
437.00,0.0061
436.00,0.0061
435.00,0.0061
434.00,0.0061
433.00,0.0061
432.00,0.0060
431.00,0.0059
430.00,0.0059
429.00,0.0060
428.00,0.0061
427.00,0.0062
426.00,0.0062
425.00,0.0061
424.00,0.0059
423.00,0.0058
422.00,0.0057
421.00,0.0058
420.00,0.0060
419.00,0.0063
418.00,0.0067
417.00,0.0068
416.00,0.0067
415.00,0.0063
414.00,0.0059
413.00,0.0056
412.00,0.0055
411.00,0.0057
410.00,0.0058
409.00,0.0057
408.00,0.0056
407.00,0.0056
406.00,0.0057
405.00,0.0059
404.00,0.0059
403.00,0.0057
402.00,0.0056
401.00,0.0056
400.00,0.0059
