##TITLE= Sample 108 By YargerLab Date Thursday, May 23 2024
##JCAMP-DX= 4.24
##DATA TYPE= INFRARED SPECTRUM
##ORIGIN= Exported PE Spectrum Data File
##OWNER= Yarger Lab
##DATE= 24/05/23
##TIME= 15:21:04.00
##SPECTROMETER/DATA SYSTEM= PERKIN-ELMER Spectrum Two IR
##INSTRUMENT PARAMETERS=
  APODIZATION=Strong
  DETECTOR=LiTa03
##RESOLUTION= 4.000000
##DELTAX= -1.000000
##XUNITS= 1/CM
##YUNITS= TRANSMITTANCE
##XFACTOR= 1.00
##YFACTOR= 0.00000011920928955078
##FIRSTX= 4000.00
##LASTX= 400.00
##NPOINTS= 3601
##FIRSTY= 100.558004
##MAXY= 1.104662
##MINY= 1.005311
##XYDATA= (X++(Y..Y))
  4000.000000   8435416   8435420   8435407   8435376   8435345  
  3995.000000   8435354   8435450   8435652   8435925   8436173  
  3990.000000   8436282   8436196   8435963   8435719   8435615  
  3985.000000   8435726   8436011   8436329   8436521   8436495  
  3980.000000   8436278   8435986   8435752   8435660   8435715  
  3975.000000   8435864   8436039   8436195   8436314   8436381  
  3970.000000   8436376   8436287   8436135   8435965   8435813  
  3965.000000   8435703   8435651   8435664   8435723   8435782  
  3960.000000   8435799   8435763   8435694   8435622   8435579  
  3955.000000   8435577   8435599   8435625   8435648   8435673  
  3950.000000   8435694   8435691   8435656   8435598   8435535  
  3945.000000   8435494   8435500   8435566   8435686   8435846  
  3940.000000   8436023   8436157   8436163   8436002   8435747  
  3935.000000   8435545   8435500   8435584   8435677   8435690  
  3930.000000   8435639   8435599   8435606   8435614   8435544  
  3925.000000   8435376   8435165   8434990   8434895   8434885  
  3920.000000   8434942   8435045   8435173   8435322   8435478  
  3915.000000   8435620   8435722   8435786   8435842   8435902  
  3910.000000   8435943   8435935   8435870   8435764   8435642  
  3905.000000   8435530   8435429   8435312   8435158   8434999  
  3900.000000   8434892   8434837   8434790   8434750   8434782  
  3895.000000   8434930   8435159   8435406   8435640   8435795  
  3890.000000   8435769   8435529   8435191   8434994   8435068  
  3885.000000   8435265   8435368   8435334   8435281   8435349  
  3880.000000   8435539   8435718   8435754   8435632   8435483  
  3875.000000   8435451   8435505   8435461   8435245   8435053  
  3870.000000   8435093   8435279   8435392   8435360   8435282  
  3865.000000   8435259   8435265   8435243   8435199   8435176  
  3860.000000   8435203   8435286   8435399   8435435   8435304  
  3855.000000   8435238   8435516   8435853   8435833   8435536  
  3850.000000   8435274   8435218   8435330   8435465   8435499  
  3845.000000   8435417   8435322   8435314   8435383   8435448  
  3840.000000   8435471   8435477   8435449   8435313   8435054  
  3835.000000   8434747   8434486   8434349   8434364   8434463  
  3830.000000   8434519   8434473   8434425   8434528   8434792  
  3825.000000   8435050   8435123   8435057   8435115   8435366  
  3820.000000   8435599   8435624   8435460   8435345   8435440  
  3815.000000   8435585   8435567   8435411   8435291   8435275  
  3810.000000   8435231   8435068   8434962   8435114   8435427  
  3805.000000   8435628   8435559   8435354   8435278   8435308  
  3800.000000   8435225   8434949   8434556   8434186   8433934  
  3795.000000   8433816   8433813   8433917   8434124   8434386  
  3790.000000   8434601   8434671   8434556   8434290   8433982  
  3785.000000   8433792   8433831   8434049   8434276   8434412  
  3780.000000   8434494   8434545   8434471   8434207   8433881  
  3775.000000   8433702   8433723   8433814   8433873   8433953  
  3770.000000   8434108   8434285   8434432   8434584   8434765  
  3765.000000   8434895   8434849   8434599   8434247   8433954  
  3760.000000   8433816   8433832   8433967   8434205   8434537  
  3755.000000   8434885   8435125   8435170   8435067   8434958  
  3750.000000   8434917   8434905   8434847   8434615   8434241  
  3745.000000   8434019   8433981   8433893   8433702   8433559  
  3740.000000   8433581   8433714   8433829   8433897   8433976  
  3735.000000   8434096   8434210   8434265   8434234   8434081  
  3730.000000   8433794   8433451   8433214   8433183   8433260  
  3725.000000   8433299   8433305   8433374   8433514   8433637  
  3720.000000   8433696   8433717   8433733   8433748   8433772  
  3715.000000   8433830   8433934   8434077   8434185   8434119  
  3710.000000   8433811   8433402   8433160   8433239   8433536  
  3705.000000   8433818   8433950   8433990   8434055   8434168  
  3700.000000   8434262   8434265   8434165   8434012   8433881  
  3695.000000   8433832   8433905   8434135   8434523   8434973  
  3690.000000   8435314   8435404   8435238   8434955   8434724  
  3685.000000   8434646   8434742   8434946   8435186   8435501  
  3680.000000   8435986   8436562   8436938   8437003   8436981  
  3675.000000   8437012   8436986   8436817   8436639   8436764  
  3670.000000   8437284   8437884   8438238   8438289   8438163  
  3665.000000   8438052   8438118   8438407   8438824   8439255  
  3660.000000   8439650   8439968   8440155   8440248   8440370  
  3655.000000   8440601   8440883   8441105   8441269   8441505  
  3650.000000   8441871   8442302   8442754   8443202   8443585  
  3645.000000   8443891   8444237   8444740   8445352   8445885  
  3640.000000   8446193   8446273   8446178   8445971   8445772  
  3635.000000   8445762   8446053   8446610   8447293   8447958  
  3630.000000   8448532   8448945   8449160   8449298   8449525  
  3625.000000   8449934   8450524   8451178   8451721   8452092  
  3620.000000   8452439   8452919   8453471   8453917   8454218  
  3615.000000   8454508   8454926   8455494   8456145   8456787  
  3610.000000   8457334   8457760   8458152   8458621   8459159  
  3605.000000   8459648   8460013   8460289   8460563   8460890  
  3600.000000   8461279   8461703   8462125   8462518   8462893  
  3595.000000   8463286   8463712   8464171   8464662   8465153  
  3590.000000   8465584   8465928   8466256   8466672   8467197  
  3585.000000   8467780   8468395   8469046   8469722   8470411  
  3580.000000   8471146   8471950   8472756   8473443   8473949  
  3575.000000   8474314   8474616   8474920   8475268   8475661  
  3570.000000   8476082   8476562   8477168   8477893   8478627  
  3565.000000   8479303   8479996   8480804   8481695   8482534  
  3560.000000   8483230   8483790   8484258   8484682   8485126  
  3555.000000   8485627   8486153   8486657   8487149   8487642  
  3550.000000   8488100   8488501   8488918   8489450   8490096  
  3545.000000   8490783   8491468   8492138   8492740   8493227  
  3540.000000   8493654   8494145   8494755   8495426   8496079  
  3535.000000   8496683   8497241   8497770   8498307   8498874  
  3530.000000   8499453   8500010   8500545   8501054   8501511  
  3525.000000   8501947   8502485   8503220   8504087   8504918  
  3520.000000   8505626   8506234   8506796   8507358   8507960  
  3515.000000   8508599   8509182   8509613   8509933   8510287  
  3510.000000   8510776   8511394   8512080   8512756   8513314  
  3505.000000   8513673   8513861   8513995   8514199   8514560  
  3500.000000   8515153   8516001   8517027   8518086   8519050  
  3495.000000   8519840   8520422   8520852   8521280   8521810  
  3490.000000   8522388   8522890   8523320   8523816   8524459  
  3485.000000   8525176   8525834   8526364   8526794   8527212  
  3480.000000   8527698   8528256   8528833   8529429   8530121  
  3475.000000   8530939   8531757   8532420   8532927   8533407  
  3470.000000   8533943   8534497   8534997   8535398   8535679  
  3465.000000   8535883   8536157   8536672   8537458   8538371  
  3460.000000   8539213   8539848   8540250   8540533   8540905  
  3455.000000   8541496   8542229   8542919   8543490   8544008  
  3450.000000   8544537   8545064   8545574   8546107   8546718  
  3445.000000   8547430   8548225   8549027   8549721   8550254  
  3440.000000   8550713   8551228   8551829   8552460   8553091  
  3435.000000   8553748   8554436   8555138   8555860   8556614  
  3430.000000   8557355   8558018   8558602   8559165   8559754  
  3425.000000   8560400   8561138   8561958   8562766   8563475  
  3420.000000   8564132   8564868   8565732   8566655   8567540  
  3415.000000   8568298   8568849   8569188   8569452   8569817  
  3410.000000   8570325   8570897   8571508   8572224   8573066  
  3405.000000   8573928   8574679   8575278   8575777   8576267  
  3400.000000   8576829   8577497   8578240   8579018   8579838  
  3395.000000   8580698   8581527   8582259   8582927   8583610  
  3390.000000   8584308   8584964   8585581   8586231   8586947  
  3385.000000   8587696   8588464   8589275   8590105   8590867  
  3380.000000   8591526   8592155   8592863   8593709   8594689  
  3375.000000   8595745   8596774   8597682   8598448   8599117  
  3370.000000   8599741   8600393   8601183   8602187   8603358  
  3365.000000   8604574   8605762   8606920   8608017   8608994  
  3360.000000   8609859   8610715   8611663   8612731   8613893  
  3355.000000   8615102   8616308   8617499   8618726   8620032  
  3350.000000   8621373   8622660   8623888   8625145   8626497  
  3345.000000   8627916   8629335   8630714   8632052   8633384  
  3340.000000   8634772   8636263   8637834   8639418   8640960  
  3335.000000   8642438   8643863   8645301   8646864   8648609  
  3330.000000   8650464   8652298   8654050   8655728   8657364  
  3325.000000   8659033   8660887   8663037   8665408   8667778  
  3320.000000   8669981   8672008   8673938   8675856   8677821  
  3315.000000   8679846   8681865   8683804   8685672   8687562  
  3310.000000   8689555   8691697   8694019   8696515   8699087  
  3305.000000   8701601   8703991   8706280   8708514   8710733  
  3300.000000   8712983   8715289   8717622   8719934   8722211  
  3295.000000   8724432   8726529   8728467   8730332   8732244  
  3290.000000   8734201   8736096   8737862   8739516   8741078  
  3285.000000   8742520   8743836   8745067   8746247   8747365  
  3280.000000   8748370   8749182   8749709   8749932   8749934  
  3275.000000   8749794   8749497   8749017   8748442   8747929  
  3270.000000   8747511   8747039   8746305   8745161   8743576  
  3265.000000   8741671   8739694   8737855   8736167   8734481  
  3260.000000   8732659   8730662   8728524   8726314   8724096  
  3255.000000   8721878   8719612   8717313   8715099   8713039  
  3250.000000   8711047   8709023   8707027   8705186   8703470  
  3245.000000   8701721   8699890   8698083   8696363   8694649  
  3240.000000   8692839   8690926   8688945   8686936   8684990  
  3235.000000   8683255   8681807   8680557   8679321   8677967  
  3230.000000   8676506   8675064   8673761   8672595   8671466  
  3225.000000   8670337   8669278   8668316   8667321   8666146  
  3220.000000   8664829   8663528   8662324   8661194   8660139  
  3215.000000   8659194   8658313   8657361   8656240   8654956  
  3210.000000   8653564   8652155   8650862   8649767   8648814  
  3205.000000   8647894   8646987   8646123   8645260   8644324  
  3200.000000   8643364   8642502   8641722   8640837   8639714  
  3195.000000   8638416   8637092   8635843   8634713   8633690  
  3190.000000   8632682   8631589   8630427   8629321   8628346  
  3185.000000   8627448   8626541   8625591   8624589   8623534  
  3180.000000   8622471   8621441   8620395   8619222   8617911  
  3175.000000   8616598   8615422   8614393   8613420   8612405  
  3170.000000   8611298   8610131   8608998   8607968   8606996  
  3165.000000   8605998   8604985   8604025   8603099   8602095  
  3160.000000   8600978   8599848   8598787   8597752   8596659  
  3155.000000   8595523   8594450   8593549   8592855   8592308  
  3150.000000   8591765   8591106   8590325   8589493   8588641  
  3145.000000   8587765   8586914   8586182   8585582   8585013  
  3140.000000   8584385   8583693   8582974   8582263   8581618  
  3135.000000   8581109   8580733   8580394   8580010   8579576  
  3130.000000   8579126   8578682   8578258   8577857   8577427  
  3125.000000   8576894   8576258   8575611   8575039   8574563  
  3120.000000   8574187   8573956   8573917   8574066   8574341  
  3115.000000   8574642   8574845   8574869   8574744   8574594  
  3110.000000   8574539   8574626   8574817   8575006   8575079  
  3105.000000   8575016   8574930   8574945   8575091   8575342  
  3100.000000   8575716   8576228   8576796   8577286   8577663  
  3095.000000   8577988   8578298   8578577   8578860   8579239  
  3090.000000   8579730   8580225   8580600   8580821   8580905  
  3085.000000   8580868   8580739   8580576   8580454   8580466  
  3080.000000   8580707   8581185   8581759   8582230   8582513  
  3075.000000   8582641   8582657   8582574   8582437   8582298  
  3070.000000   8582136   8581901   8581638   8581469   8581426  
  3065.000000   8581417   8581361   8581258   8581079   8580714  
  3060.000000   8580098   8579320   8578536   8577841   8577233  
  3055.000000   8576640   8575961   8575138   8574228   8573355  
  3050.000000   8572565   8571806   8571044   8570305   8569590  
  3045.000000   8568839   8568058   8567376   8566912   8566620  
  3040.000000   8566317   8565837   8565119   8564227   8563330  
  3035.000000   8562602   8562095   8561711   8561333   8560931  
  3030.000000   8560535   8560149   8559750   8559318   8558869  
  3025.000000   8558456   8558148   8557957   8557806   8557621  
  3020.000000   8557452   8557416   8557525   8557667   8557769  
  3015.000000   8557904   8558189   8558645   8559205   8559771  
  3010.000000   8560214   8560384   8560195   8559679   8558936  
  3005.000000   8558067   8557167   8556314   8555529   8554795  
  3000.000000   8554139   8553645   8553371   8553280   8553313  
  2995.000000   8553457   8553744   8554209   8554887   8555792  
  2990.000000   8556887   8558103   8559422   8560874   8562450  
  2985.000000   8564089   8565769   8567560   8569556   8571799  
  2980.000000   8574287   8576974   8579762   8582529   8585254  
  2975.000000   8588044   8591020   8594197   8597510   8600901  
  2970.000000   8604354   8607899   8611587   8615422   8619299  
  2965.000000   8623051   8626592   8629946   8633128   8636053  
  2960.000000   8638583   8640601   8642017   8642791   8642988  
  2955.000000   8642743   8642130   8641134   8639814   8638424  
  2950.000000   8637333   8636844   8637115   8638189   8640037  
  2945.000000   8642626   8645972   8650127   8655092   8660780  
  2940.000000   8667072   8673832   8680884   8688060   8695334  
  2935.000000   8702842   8710713   8718905   8727230   8735475  
  2930.000000   8743462   8751058   8758200   8764840   8770861  
  2925.000000   8776064   8780295   8783516   8785720   8786840  
  2920.000000   8786736   8785195   8781908   8776499   8768727  
  2915.000000   8758692   8746916   8734264   8721733   8710151  
  2910.000000   8699930   8691084   8683438   8676814   8671024  
  2905.000000   8665832   8661022   8656508   8652344   8648614  
  2900.000000   8645307   8642274   8639295   8636238   8633157  
  2895.000000   8630206   8627469   8624895   8622398   8619951  
  2890.000000   8617582   8615349   8613326   8611571   8610064  
  2885.000000   8608740   8607594   8606713   8606190   8606053  
  2880.000000   8606286   8606867   8607752   8608866   8610133  
  2875.000000   8611468   8612706   8613620   8614060   8614059  
  2870.000000   8613781   8613422   8613194   8613350   8614134  
  2865.000000   8615716   8618176   8621533   8625769   8630836  
  2860.000000   8636670   8643167   8650138   8657323   8664425  
  2855.000000   8671112   8676963   8681477   8684125   8684340  
  2850.000000   8681520   8675255   8665709   8653734   8640582  
  2845.000000   8627444   8615193   8604359   8595159   8587553  
  2840.000000   8581330   8576197   8571848   8568042   8564666  
  2835.000000   8561715   8559186   8557002   8555063   8553301  
  2830.000000   8551681   8550177   8548780   8547495   8546298  
  2825.000000   8545143   8544006   8542914   8541890   8540923  
  2820.000000   8540002   8539145   8538366   8537645   8536970  
  2815.000000   8536345   8535749   8535136   8534494   8533886  
  2810.000000   8533363   8532908   8532471   8532042   8531636  
  2805.000000   8531229   8530753   8530161   8529466   8528738  
  2800.000000   8528062   8527477   8526969   8526524   8526184  
  2795.000000   8525989   8525869   8525684   8525366   8524983  
  2790.000000   8524627   8524300   8523948   8523548   8523110  
  2785.000000   8522654   8522218   8521857   8521577   8521312  
  2780.000000   8520991   8520604   8520192   8519789   8519411  
  2775.000000   8519060   8518718   8518366   8518031   8517773  
  2770.000000   8517600   8517448   8517250   8516982   8516624  
  2765.000000   8516149   8515592   8515080   8514725   8514529  
  2760.000000   8514415   8514312   8514175   8513963   8513667  
  2755.000000   8513328   8512989   8512655   8512322   8512004  
  2750.000000   8511713   8511454   8511254   8511135   8511039  
  2745.000000   8510848   8510528   8510198   8509991   8509904  
  2740.000000   8509816   8509639   8509381   8509093   8508829  
  2735.000000   8508631   8508495   8508368   8508201   8508001  
  2730.000000   8507789   8507561   8507313   8507073   8506855  
  2725.000000   8506619   8506334   8506038   8505786   8505564  
  2720.000000   8505321   8505056   8504828   8504681   8504608  
  2715.000000   8504561   8504471   8504278   8503986   8503683  
  2710.000000   8503453   8503280   8503079   8502798   8502458  
  2705.000000   8502115   8501825   8501639   8501569   8501571  
  2700.000000   8501596   8501634   8501676   8501672   8501563  
  2695.000000   8501359   8501149   8501033   8501044   8501124  
  2690.000000   8501150   8501013   8500728   8500442   8500291  
  2685.000000   8500265   8500243   8500129   8499923   8499678  
  2680.000000   8499443   8499249   8499104   8498999   8498924  
  2675.000000   8498866   8498794   8498677   8498536   8498419  
  2670.000000   8498328   8498204   8498023   8497860   8497798  
  2665.000000   8497814   8497793   8497647   8497371   8497027  
  2660.000000   8496710   8496489   8496339   8496153   8495879  
  2655.000000   8495607   8495458   8495421   8495374   8495222  
  2650.000000   8494969   8494655   8494316   8494004   8493763  
  2645.000000   8493565   8493343   8493099   8492914   8492833  
  2640.000000   8492797   8492708   8492535   8492324   8492129  
  2635.000000   8491951   8491746   8491497   8491265   8491144  
  2630.000000   8491143   8491156   8491096   8491008   8490978  
  2625.000000   8490992   8490947   8490799   8490611   8490459  
  2620.000000   8490356   8490287   8490235   8490149   8489959  
  2615.000000   8489645   8489268   8488925   8488697   8488621  
  2610.000000   8488642   8488608   8488385   8487999   8487627  
  2605.000000   8487420   8487382   8487400   8487377   8487308  
  2600.000000   8487253   8487249   8487240   8487122   8486871  
  2595.000000   8486585   8486364   8486218   8486115   8486058  
  2590.000000   8486026   8485911   8485616   8485208   8484867  
  2585.000000   8484710   8484714   8484803   8484900   8484918  
  2580.000000   8484826   8484720   8484726   8484815   8484810  
  2575.000000   8484603   8484294   8484059   8483956   8483896  
  2570.000000   8483766   8483528   8483234   8482973   8482771  
  2565.000000   8482568   8482305   8482035   8481887   8481932  
  2560.000000   8482102   8482244   8482235   8482074   8481904  
  2555.000000   8481890   8482011   8482034   8481760   8481271  
  2550.000000   8480831   8480590   8480488   8480428   8480403  
  2545.000000   8480441   8480501   8480506   8480433   8480330  
  2540.000000   8480275   8480319   8480418   8480448   8480336  
  2535.000000   8480141   8479953   8479757   8479476   8479164  
  2530.000000   8479018   8479158   8479446   8479593   8479420  
  2525.000000   8479009   8478628   8478513   8478684   8478963  
  2520.000000   8479166   8479261   8479318   8479364   8479330  
  2515.000000   8479138   8478791   8478408   8478151   8478088  
  2510.000000   8478078   8477904   8477546   8477245   8477220  
  2505.000000   8477407   8477568   8477587   8477529   8477472  
  2500.000000   8477417   8477367   8477349   8477341   8477258  
  2495.000000   8477041   8476705   8476319   8476004   8475913  
  2490.000000   8476104   8476420   8476591   8476474   8476164  
  2485.000000   8475858   8475703   8475726   8475848   8475943  
  2480.000000   8475929   8475821   8475663   8475460   8475226  
  2475.000000   8475041   8474987   8475063   8475221   8475422  
  2470.000000   8475577   8475513   8475154   8474691   8474438  
  2465.000000   8474529   8474817   8475054   8475064   8474783  
  2460.000000   8474284   8473766   8473420   8473280   8473267  
  2455.000000   8473342   8473513   8473737   8473946   8474134  
  2450.000000   8474292   8474286   8473958   8473367   8472806  
  2445.000000   8472531   8472558   8472696   8472696   8472404  
  2440.000000   8471921   8471583   8471661   8472076   8472531  
  2435.000000   8472887   8473210   8473476   8473496   8473191  
  2430.000000   8472764   8472471   8472357   8472295   8472146  
  2425.000000   8471827   8471354   8470909   8470752   8470941  
  2420.000000   8471233   8471344   8471210   8470956   8470717  
  2415.000000   8470585   8470610   8470727   8470746   8470529  
  2410.000000   8470151   8469824   8469691   8469750   8469933  
  2405.000000   8470152   8470306   8470304   8470114   8469777  
  2400.000000   8469383   8469040   8468826   8468760   8468847  
  2395.000000   8469095   8469430   8469664   8469637   8469408  
  2390.000000   8469194   8469127   8469160   8469205   8469242  
  2385.000000   8469274   8469289   8469298   8469332   8469353  
  2380.000000   8469280   8469153   8469148   8469356   8469632  
  2375.000000   8469753   8469648   8469393   8469085   8468833  
  2370.000000   8468770   8468911   8469090   8469161   8469176  
  2365.000000   8469202   8469104   8468757   8468358   8468276  
  2360.000000   8468571   8468890   8468898   8468630   8468373  
  2355.000000   8468328   8468451   8468547   8468494   8468364  
  2350.000000   8468329   8468484   8468767   8469000   8469010  
  2345.000000   8468754   8468359   8467984   8467674   8467365  
  2340.000000   8467070   8466977   8467232   8467686   8468026  
  2335.000000   8468129   8468119   8468100   8468035   8467935  
  2330.000000   8467929   8468054   8468133   8467979   8467601  
  2325.000000   8467136   8466712   8466428   8466332   8466351  
  2320.000000   8466334   8466257   8466251   8466374   8466501  
  2315.000000   8466513   8466450   8466371   8466223   8465992  
  2310.000000   8465827   8465863   8466011   8466093   8466093  
  2305.000000   8466116   8466179   8466214   8466244   8466362  
  2300.000000   8466540   8466607   8466450   8466134   8465798  
  2295.000000   8465528   8465339   8465209   8465106   8465051  
  2290.000000   8465133   8465406   8465767   8466009   8465973  
  2285.000000   8465623   8465021   8464310   8463694   8463342  
  2280.000000   8463290   8463464   8463744   8464016   8464230  
  2275.000000   8464454   8464744   8464953   8464798   8464207  
  2270.000000   8463473   8462998   8462978   8463371   8463958  
  2265.000000   8464370   8464272   8463696   8463034   8462558  
  2260.000000   8462146   8461612   8461116   8461022   8461476  
  2255.000000   8462315   8463256   8463983   8464227   8463996  
  2250.000000   8463661   8463631   8463971   8464412   8464622  
  2245.000000   8464385   8463718   8462933   8462378   8462024  
  2240.000000   8461545   8460914   8460609   8461019   8461931  
  2235.000000   8462840   8463461   8463673   8463331   8462516  
  2230.000000   8461732   8461430   8461460   8461343   8460935  
  2225.000000   8460518   8460343   8460366   8460383   8460230  
  2220.000000   8460002   8460159   8461133   8462655   8463819  
  2215.000000   8464049   8463673   8463319   8463179   8463193  
  2210.000000   8463497   8464209   8465031   8465489   8465358  
  2205.000000   8464658   8463594   8462767   8462940   8464142  
  2200.000000   8465428   8465932   8465711   8465144   8464137  
  2195.000000   8462579   8461099   8460562   8461036   8461903  
  2190.000000   8462737   8463468   8463983   8464174   8464140  
  2185.000000   8463875   8463139   8462123   8461666   8462104  
  2180.000000   8462528   8462001   8460894   8460192   8459995  
  2175.000000   8459737   8459431   8459635   8460424   8461353  
  2170.000000   8462184   8462783   8462618   8461388   8459980  
  2165.000000   8459738   8460681   8461441   8461056   8459949  
  2160.000000   8459073   8458923   8459412   8459972   8459981  
  2155.000000   8459670   8460075   8461576   8463162   8463775  
  2150.000000   8463667   8463681   8463826   8463541   8462925  
  2145.000000   8462711   8463177   8463871   8464298   8464270  
  2140.000000   8463778   8463087   8462764   8463086   8463615  
  2135.000000   8463812   8463808   8464071   8464600   8464981  
  2130.000000   8465012   8464827   8464560   8464262   8464065  
  2125.000000   8464055   8464068   8463905   8463664   8463587  
  2120.000000   8463700   8463845   8463931   8463922   8463737  
  2115.000000   8463425   8463236   8463256   8463195   8462838  
  2110.000000   8462479   8462525   8462885   8463128   8463060  
  2105.000000   8462765   8462324   8461921   8462015   8462891  
  2100.000000   8464109   8464862   8464827   8464335   8463822  
  2095.000000   8463476   8463310   8463179   8462846   8462349  
  2090.000000   8462155   8462614   8463435   8464054   8464319  
  2085.000000   8464408   8464316   8463899   8463308   8462898  
  2080.000000   8462771   8462813   8463051   8463520   8463873  
  2075.000000   8463617   8462727   8461657   8460823   8460384  
  2070.000000   8460374   8460647   8460858   8460864   8460928  
  2065.000000   8461199   8461348   8461107   8460779   8460723  
  2060.000000   8460808   8460894   8461359   8462460   8463560  
  2055.000000   8463728   8462820   8461325   8459544   8457703  
  2050.000000   8456457   8456313   8456814   8457265   8457836  
  2045.000000   8458829   8459504   8458962   8457713   8457011  
  2040.000000   8456982   8456848   8456628   8456997   8457648  
  2035.000000   8457523   8456729   8456596   8457699   8459300  
  2030.000000   8460651   8461481   8461409   8460243   8458669  
  2025.000000   8457494   8456620   8455819   8455803   8457124  
  2020.000000   8458756   8459338   8459196   8459587   8460519  
  2015.000000   8460989   8460827   8460601   8460203   8459185  
  2010.000000   8458093   8457894   8458383   8458696   8458970  
  2005.000000   8459781   8460632   8460650   8460249   8460468  
  2000.000000   8461045   8460802   8459703   8458969   8459130  
  1995.000000   8459394   8459072   8458343   8457483   8456469  
  1990.000000   8455514   8454952   8454608   8454212   8454169  
  1985.000000   8454847   8455484   8455042   8453964   8453725  
  1980.000000   8454713   8455814   8456039   8455190   8453235  
  1975.000000   8450762   8449570   8450910   8453527   8455114  
  1970.000000   8455123   8454656   8454356   8454236   8455011  
  1965.000000   8457451   8460575   8462288   8461752   8459894  
  1960.000000   8457862   8456219   8455402   8455519   8455803  
  1955.000000   8455475   8454957   8455210   8456182   8456953  
  1950.000000   8457195   8457356   8457551   8457385   8456863  
  1945.000000   8456512   8456610   8457001   8457566   8458154  
  1940.000000   8458233   8457430   8456228   8455405   8454999  
  1935.000000   8454587   8454281   8454551   8455269   8455704  
  1930.000000   8455539   8455108   8454689   8454277   8453924  
  1925.000000   8453844   8454050   8454324   8454570   8454767  
  1920.000000   8454768   8454641   8454775   8455260   8455586  
  1915.000000   8455397   8455093   8455246   8455767   8456127  
  1910.000000   8456204   8456192   8456016   8455545   8455039  
  1905.000000   8454863   8454870   8454663   8454353   8454316  
  1900.000000   8454427   8454268   8453864   8453682   8453940  
  1895.000000   8454407   8454836   8455068   8454887   8454330  
  1890.000000   8453880   8453846   8453933   8453867   8453936  
  1885.000000   8454422   8454919   8454834   8454314   8453922  
  1880.000000   8453732   8453508   8453361   8453552   8453959  
  1875.000000   8454317   8454679   8455008   8454683   8453295  
  1870.000000   8451719   8451265   8451887   8452539   8452821  
  1865.000000   8453012   8453108   8452855   8452461   8452454  
  1860.000000   8452828   8453068   8453005   8452913   8452892  
  1855.000000   8452799   8452779   8453065   8453302   8453044  
  1850.000000   8452664   8452949   8453820   8454314   8454038  
  1845.000000   8453740   8453774   8453542   8452980   8452606  
  1840.000000   8452519   8452442   8452319   8452404   8452691  
  1835.000000   8452808   8452560   8451952   8451034   8450317  
  1830.000000   8450430   8451167   8451644   8451416   8451098  
  1825.000000   8451426   8452064   8452258   8452048   8451930  
  1820.000000   8451940   8451794   8451599   8451761   8452123  
  1815.000000   8452094   8451606   8451159   8451125   8451321  
  1810.000000   8451463   8451613   8451842   8452062   8452265  
  1805.000000   8452472   8452346   8451555   8450577   8450286  
  1800.000000   8450814   8451497   8451985   8452501   8452926  
  1795.000000   8452670   8451833   8451530   8452212   8452988  
  1790.000000   8453330   8453550   8453715   8453508   8452948  
  1785.000000   8452527   8452314   8451905   8451463   8451568  
  1780.000000   8452208   8452739   8453136   8454037   8455256  
  1775.000000   8455513   8454426   8453600   8454105   8455085  
  1770.000000   8455719   8456204   8456878   8457627   8458351  
  1765.000000   8459136   8459902   8460760   8462167   8464248  
  1760.000000   8466582   8468684   8471146   8475265   8481138  
  1755.000000   8487524   8493440   8498751   8503683   8508274  
  1750.000000   8512721   8517847   8523693   8529157   8533610  
  1745.000000   8537405   8540758   8543035   8543703   8543339  
  1740.000000   8543084   8543469   8544553   8545393   8543895  
  1735.000000   8539516   8533793   8528429   8524359   8521354  
  1730.000000   8519109   8517640   8516494   8514929   8512909  
  1725.000000   8511146   8510136   8509679   8509625   8509861  
  1720.000000   8509559   8508097   8506067   8504469   8503670  
  1715.000000   8503451   8503841   8505171   8507286   8509612  
  1710.000000   8512127   8515239   8519018   8523806   8531146  
  1705.000000   8542074   8555054   8567038   8577428   8590866  
  1700.000000   8608416   8624070   8635494   8645222   8655138  
  1695.000000   8664034   8671173   8678101   8685576   8693269  
  1690.000000   8701688   8711993   8723789   8734278   8741290  
  1685.000000   8747771   8756370   8765072   8773586   8783514  
  1680.000000   8794992   8806738   8817592   8827610   8837620  
  1675.000000   8847636   8857394   8867443   8877781   8887745  
  1670.000000   8897645   8908390   8919973   8931700   8943277  
  1665.000000   8954936   8966985   8979025   8990578   9002260  
  1660.000000   9014632   9027505   9041324   9056985   9072689  
  1655.000000   9083870   9089430   9091132   9091519   9094672  
  1650.000000   9101407   9109607   9116981   9122166   9125454  
  1645.000000   9129286   9135354   9142884   9150693   9158782  
  1640.000000   9167788   9177358   9185882   9192692   9198483  
  1635.000000   9203805   9209988   9218595   9228950   9238724  
  1630.000000   9246374   9252318   9257564   9262122   9265325  
  1625.000000   9266574   9265529   9262344   9258889   9257769  
  1620.000000   9258785   9257975   9250783   9236358   9218639  
  1615.000000   9202696   9189900   9178000   9164159   9147124  
  1610.000000   9127739   9107558   9087429   9067550   9048142  
  1605.000000   9029257   9010624   8992272   8974745   8958467  
  1600.000000   8943315   8929141   8916071   8904080   8892928  
  1595.000000   8882588   8873325   8865171   8857808   8851114  
  1590.000000   8845274   8840285   8835910   8832164   8829364  
  1585.000000   8827618   8826619   8826302   8827144   8829638  
  1580.000000   8833589   8837952   8841269   8842952   8843395  
  1575.000000   8843703   8845660   8849367   8853011   8855711  
  1570.000000   8858726   8863035   8868147   8873769   8880435  
  1565.000000   8888885   8899388   8911545   8923201   8930670  
  1560.000000   8935225   8942077   8950671   8959892   8969889  
  1555.000000   8980228   8990617   9000836   9010869   9021180  
  1550.000000   9032428   9044636   9056950   9068593   9079649  
  1545.000000   9090794   9102147   9112893   9121800   9128573  
  1540.000000   9133209   9135720   9138422   9143183   9148599  
  1535.000000   9152145   9153559   9154549   9156769   9160498  
  1530.000000   9164932   9169238   9172783   9175379   9177772  
  1525.000000   9181030   9185013   9188272   9189954   9190509  
  1520.000000   9191280   9193324   9196313   9199029   9200397  
  1515.000000   9200319   9198831   9195259   9189810   9184222  
  1510.000000   9179421   9173068   9161661   9144642   9125463  
  1505.000000   9109487   9098416   9090147   9081964   9072467  
  1500.000000   9061735   9049993   9036618   9021098   9004625  
  1495.000000   8989343   8976208   8964087   8950888   8935620  
  1490.000000   8919411   8904391   8891725   8880850   8870917  
  1485.000000   8861918   8853807   8846242   8839366   8833998  
  1480.000000   8830455   8828042   8826249   8825579   8826424  
  1475.000000   8827892   8829457   8832235   8836880   8842509  
  1470.000000   8848713   8855541   8862158   8866960   8869295  
  1465.000000   8870258   8871064   8872169   8873978   8877061  
  1460.000000   8881084   8884656   8887301   8889580   8890954  
  1455.000000   8891408   8891979   8892896   8893496   8893197  
  1450.000000   8892009   8890270   8888272   8886013   8883654  
  1445.000000   8881362   8878920   8876061   8873164   8871087  
  1440.000000   8869831   8867928   8863688   8857236   8850107  
  1435.000000   8843819   8838903   8834796   8830591   8825971  
  1430.000000   8821407   8817624   8814979   8813167   8811906  
  1425.000000   8811575   8812796   8815504   8818733   8821244  
  1420.000000   8822711   8823923   8825557   8828038   8831272  
  1415.000000   8834548   8837490   8840369   8843369   8846257  
  1410.000000   8848930   8851583   8854193   8856290   8857771  
  1405.000000   8859162   8860714   8862077   8862897   8863134  
  1400.000000   8862868   8862190   8861376   8860734   8860057  
  1395.000000   8858844   8857172   8855699   8854777   8854087  
  1390.000000   8853157   8851717   8849602   8846672   8843271  
  1385.000000   8840097   8837283   8834458   8831547   8828893  
  1380.000000   8826543   8824117   8821420   8818563   8815504  
  1375.000000   8812172   8809010   8806614   8804869   8803010  
  1370.000000   8800649   8798019   8795232   8791988   8788120  
  1365.000000   8783796   8779227   8774639   8770503   8767285  
  1360.000000   8764865   8762707   8760619   8758814   8757297  
  1355.000000   8755805   8754383   8753361   8752733   8752043  
  1350.000000   8751137   8750336   8749765   8749154   8748457  
  1345.000000   8748000   8747841   8747595   8747070   8746520  
  1340.000000   8746062   8745414   8744523   8743767   8743291  
  1335.000000   8742819   8742242   8741783   8741477   8741077  
  1330.000000   8740629   8740537   8740886   8741330   8741789  
  1325.000000   8742584   8743698   8744633   8745209   8745851  
  1320.000000   8746846   8747945   8748936   8749927   8750849  
  1315.000000   8751344   8751452   8751728   8752432   8753201  
  1310.000000   8753765   8754295   8754873   8755249   8755397  
  1305.000000   8755659   8756094   8756342   8756309   8756363  
  1300.000000   8756631   8756777   8756677   8756668   8756904  
  1295.000000   8757140   8757337   8757815   8758599   8759301  
  1290.000000   8759860   8760701   8761975   8763281   8764410  
  1285.000000   8765635   8767054   8768351   8769412   8770507  
  1280.000000   8771636   8772417   8772825   8773333   8774096  
  1275.000000   8774750   8775200   8775863   8776891   8777919  
  1270.000000   8778841   8780033   8781593   8783127   8784565  
  1265.000000   8786364   8788659   8791017   8793319   8796001  
  1260.000000   8799153   8802253   8805147   8808365   8812158  
  1255.000000   8816092   8819910   8823947   8828355   8832756  
  1250.000000   8836986   8841374   8845993   8850437   8854611  
  1245.000000   8858879   8863193   8866963   8870045   8872965  
  1240.000000   8875896   8878381   8880306   8882181   8884148  
  1235.000000   8885652   8886424   8886847   8887091   8886856  
  1230.000000   8886205   8885684   8885330   8884507   8883020  
  1225.000000   8881352   8879620   8877302   8874278   8871109  
  1220.000000   8867968   8864372   8860220   8856065   8852075  
  1215.000000   8847769   8843070   8838546   8834320   8829816  
  1210.000000   8824885   8820126   8815770   8811326   8806646  
  1205.000000   8802265   8798340   8794351   8790201   8786536  
  1200.000000   8783594   8780790   8777813   8775133   8773006  
  1195.000000   8771036   8769106   8767691   8766839   8765849  
  1190.000000   8764383   8762939   8761822   8760690   8759467  
  1185.000000   8758669   8758417   8758139   8757695   8757756  
  1180.000000   8758669   8759972   8761401   8763337   8765837  
  1175.000000   8768304   8770535   8772994   8775658   8777719  
  1170.000000   8778885   8779820   8780883   8781587   8781766  
  1165.000000   8782045   8782618   8782761   8782102   8781210  
  1160.000000   8780435   8779336   8777779   8776386   8775327  
  1155.000000   8773865   8771633   8769231   8767031   8764572  
  1150.000000   8761680   8758996   8756828   8754630   8752126  
  1145.000000   8749827   8747925   8745847   8743410   8741273  
  1140.000000   8739724   8738207   8736510   8735256   8734717  
  1135.000000   8734321   8733816   8733745   8734278   8734806  
  1130.000000   8735145   8735939   8737346   8738586   8739285  
  1125.000000   8740027   8741105   8742028   8742731   8743936  
  1120.000000   8745760   8747274   8748002   8748538   8749234  
  1115.000000   8749647   8749818   8750630   8752320   8754018  
  1110.000000   8755329   8756954   8759222   8761467   8763411  
  1105.000000   8765668   8768331   8770610   8772436   8774847  
  1100.000000   8778211   8781601   8784508   8787551   8790938  
  1095.000000   8793926   8796463   8799635   8803826   8808074  
  1090.000000   8811925   8816159   8821062   8825750   8829924  
  1085.000000   8834469   8839622   8844371   8848423   8852904  
  1080.000000   8858323   8863730   8868648   8873919   8879800  
  1075.000000   8885202   8889664   8894154   8899038   8903216  
  1070.000000   8906119   8908627   8911171   8912932   8913737  
  1065.000000   8914670   8915990   8916385   8915200   8913436  
  1060.000000   8911738   8909459   8906448   8903727   8901583  
  1055.000000   8899015   8895822   8893165   8891226   8888528  
  1050.000000   8884540   8880715   8877901   8875012   8871260  
  1045.000000   8867441   8864109   8860526   8856374   8852576  
  1040.000000   8849563   8846496   8842991   8839787   8837037  
  1035.000000   8833799   8829897   8826368   8823390   8819738  
  1030.000000   8814922   8809926   8805183   8799886   8793973  
  1025.000000   8788713   8784524   8780229   8775257   8770613  
  1020.000000   8766894   8763302   8759444   8756169   8753793  
  1015.000000   8751328   8748276   8745381   8742933   8740111  
  1010.000000   8736652   8733344   8730303   8726658   8722496  
  1005.000000   8719190   8717116   8715015   8712215   8709603  
  1000.000000   8707664   8705563   8702907   8700529   8698732  
   995.000000   8696611   8693911   8691722   8690524   8689316  
   990.000000   8687502   8685854   8684858   8683825   8682439  
   985.000000   8681415   8680894   8679928   8678329   8677261  
   980.000000   8677231   8677263   8676786   8676607   8677227  
   975.000000   8677950   8678412   8679226   8680361   8680693  
   970.000000   8679949   8679356   8679590   8679812   8679450  
   965.000000   8679098   8678914   8677992   8676186   8674714  
   960.000000   8674133   8673446   8672019   8670570   8669505  
   955.000000   8668121   8666253   8664881   8664241   8663194  
   950.000000   8661301   8659736   8659233   8658976   8658353  
   945.000000   8658022   8658347   8658558   8658350   8658569  
   940.000000   8659470   8660027   8659803   8659736   8660296  
   935.000000   8660640   8660406   8660471   8661144   8661445  
   930.000000   8661009   8660841   8661344   8661479   8660706  
   925.000000   8659898   8659495   8658679   8657187   8656040  
   920.000000   8655628   8655018   8653964   8653579   8654154  
   915.000000   8654345   8653495   8652735   8652827   8652899  
   910.000000   8652333   8651920   8652115   8652093   8651568  
   905.000000   8651578   8652457   8652966   8652416   8651721  
   900.000000   8651415   8650670   8649205   8648136   8647918  
   895.000000   8647515   8646495   8645907   8646130   8646023  
   890.000000   8645135   8644572   8644723   8644380   8643144  
   885.000000   8642389   8642753   8642959   8642298   8641911  
   880.000000   8642387   8642440   8641306   8640174   8639929  
   875.000000   8639786   8639328   8639547   8640649   8641237  
   870.000000   8640840   8640849   8641844   8642453   8641989  
   865.000000   8641724   8642396   8642898   8642675   8642951  
   860.000000   8644315   8645504   8645882   8646718   8648678  
   855.000000   8650451   8651199   8652034   8653708   8655197  
   850.000000   8655887   8656845   8658597   8660009   8660618  
   845.000000   8661700   8663741   8665302   8665657   8666111  
   840.000000   8667453   8668601   8669042   8670029   8672005  
   835.000000   8673426   8673579   8673970   8675514   8676909  
   830.000000   8677318   8678030   8679821   8681292   8681539  
   825.000000   8681838   8682966   8683634   8683262   8683404  
   820.000000   8684835   8686117   8686425   8686973   8688328  
   815.000000   8689145   8688923   8689250   8690854   8692177  
   810.000000   8692349   8692791   8694360   8695684   8695899  
   805.000000   8696225   8697284   8697675   8696838   8696483  
   800.000000   8697551   8698553   8698538   8698856   8700340  
   795.000000   8701622   8701930   8702739   8704977   8707285  
   790.000000   8708599   8709813   8711488   8712652   8713219  
   785.000000   8714763   8717532   8719558   8720108   8721119  
   780.000000   8723791   8726695   8728695   8730784   8733518  
   775.000000   8735588   8736567   8738158   8741110   8743732  
   770.000000   8744993   8746189   8748005   8748962   8748438  
   765.000000   8748291   8749777   8751691   8753100   8754994  
   760.000000   8757681   8759611   8760409   8762072   8765535  
   755.000000   8769059   8771562   8774414   8778321   8781645  
   750.000000   8783578   8785807   8789273   8792396   8794273  
   745.000000   8796469   8799860   8802861   8804575   8806537  
   740.000000   8809553   8812042   8813329   8815310   8818912  
   735.000000   8822212   8824031   8826212   8830254   8834853  
   730.000000   8838774   8843064   8848438   8853599   8858078  
   725.000000   8863584   8870655   8877227   8882309   8887660  
   720.000000   8893958   8898875   8901233   8903372   8907196  
   715.000000   8911405   8914744   8918575   8923882   8929111  
   710.000000   8933293   8938084   8944412   8950408   8954873  
   705.000000   8959577   8965865   8972245   8977453   8982544  
   700.000000   8987842   8991310   8992139   8992526   8993809  
   695.000000   8994317   8993152   8992314   8992911   8993007  
   690.000000   8991618   8991060   8992807   8994746   8995150  
   685.000000   8995468   8996671   8997008   8995802   8995518  
   680.000000   8997513   8999617   9000324   9001371   9003773  
   675.000000   9005434   9005183   9005310   9007470   9010013  
   670.000000   9011168   9011829   9012863   9012647   9011317  
   665.000000   9011499   9013313   9014071   9012910   9012517  
   660.000000   9014299   9015889   9015923   9016530   9018711  
   655.000000   9020002   9019283   9019249   9021367   9023040  
   650.000000   9022534   9022144   9023705   9025479   9026274  
   645.000000   9027952   9031186   9033337   9033253   9033586  
   640.000000   9035839   9037825   9038508   9040355   9044208  
   635.000000   9046898   9046893   9047267   9050055   9052900  
   630.000000   9054092   9055661   9058556   9060146   9059636  
   625.000000   9060544   9064423   9067648   9067793   9067496  
   620.000000   9068681   9068703   9065987   9063748   9064045  
   615.000000   9063705   9060322   9056704   9055629   9055616  
   610.000000   9055343   9056713   9059864   9060884   9058415  
   605.000000   9056836   9058879   9061222   9061050   9060618  
   600.000000   9061451   9060689   9057424   9056085   9059147  
   595.000000   9062681   9063293   9063309   9065015   9066067  
   590.000000   9065236   9066004   9069947   9073028   9072721  
   585.000000   9072491   9074931   9077161   9077356   9078778  
   580.000000   9082716   9084676   9082348   9080264   9081868  
   575.000000   9084230   9085101   9087293   9091387   9092406  
   570.000000   9088862   9087052   9090984   9096031   9098020  
   565.000000   9099857   9103710   9105486   9103085   9101510  
   560.000000   9103874   9105785   9104305   9103746   9106763  
   555.000000   9108807   9107321   9107255   9111289   9114040  
   550.000000   9112210   9111079   9114313   9117009   9115626  
   545.000000   9114984   9118428   9120870   9118702   9116832  
   540.000000   9119094   9121157   9119892   9120050   9124560  
   535.000000   9127854   9126155   9124719   9127735   9130833  
   530.000000   9130463   9130913   9135106   9138210   9137410  
   525.000000   9138212   9143223   9145975   9142915   9140006  
   520.000000   9141193   9141335   9137903   9137886   9144433  
   515.000000   9149530   9148244   9146928   9150017   9151456  
   510.000000   9147300   9144295   9147069   9149076   9145736  
   505.000000   9143883   9148290   9151645   9147809   9143216  
   500.000000   9144022   9145186   9142506   9141926   9147497  
   495.000000   9152190   9150474   9148292   9150604   9151355  
   490.000000   9146376   9142902   9145903   9148324   9144752  
   485.000000   9141691   9143955   9144571   9139617   9137604  
   480.000000   9143041   9146611   9142292   9138645   9141375  
   475.000000   9141524   9133286   9127323   9131702   9136603  
   470.000000   9134773   9135871   9145652   9152086   9146668  
   465.000000   9140214   9142076   9143786   9138317   9135144  
   460.000000   9140802   9143758   9135775   9129928   9136051  
   455.000000   9142851   9141813   9141490   9146460   9144965  
   450.000000   9132005   9122085   9123866   9124857   9116011  
   445.000000   9109080   9112364   9112841   9101253   9090980  
   440.000000   9091877   9091318   9079270   9068124   9069450  
   435.000000   9072084   9065101   9059017   9062800   9064537  
   430.000000   9055452   9049478   9057382   9065733   9061983  
   425.000000   9056521   9057647   9051198   9031526   9021548  
   420.000000   9037669   9054568   9045359   9031115   9031279  
   415.000000   9028739   9013477   9006906   9021999   9033150  
   410.000000   9021229   9009468   9015877   9017372   8999274  
   405.000000   8994841   9019097   9033443   9000488   8966549  
   400.000000   8965933  
##END= 
