PE IR       SUBTECH     SPECTRUM    ASCII       PEDS        4.00        
   -1
2024_05_23_BWEggCase_Outer_2.ASC
24/05/23
15:21:04.00
24/05/24
17:30:01.00
Yarger Lab
Sample 108 By YargerLab Date Thursday, May 23 2024
400.000000
#HDR
-1
-1
#GR
cm-1
%T
1.0
0.0
4000.000000
-1.000000
3601
8
110.466172
100.531103
#DATA
4000.000000	100.558004
3999.000000	100.558050
3998.000000	100.557891
3997.000000	100.557518
3996.000000	100.557151
3995.000000	100.557263
3994.000000	100.558402
3993.000000	100.560817
3992.000000	100.564074
3991.000000	100.567021
3990.000000	100.568325
3989.000000	100.567302
3988.000000	100.564521
3987.000000	100.561618
3986.000000	100.560370
3985.000000	100.561695
3984.000000	100.565091
3983.000000	100.568890
3982.000000	100.571175
3981.000000	100.570863
3980.000000	100.568275
3979.000000	100.564790
3978.000000	100.562004
3977.000000	100.560906
3976.000000	100.561560
3975.000000	100.563339
3974.000000	100.565431
3973.000000	100.567293
3972.000000	100.568707
3971.000000	100.569510
3970.000000	100.569446
3969.000000	100.568380
3968.000000	100.566572
3967.000000	100.564541
3966.000000	100.562737
3965.000000	100.561428
3964.000000	100.560806
3963.000000	100.560961
3962.000000	100.561660
3961.000000	100.562362
3960.000000	100.562567
3959.000000	100.562142
3958.000000	100.561311
3957.000000	100.560458
3956.000000	100.559949
3955.000000	100.559917
3954.000000	100.560185
3953.000000	100.560490
3952.000000	100.560764
3951.000000	100.561069
3950.000000	100.561315
3949.000000	100.561281
3948.000000	100.560864
3947.000000	100.560171
3946.000000	100.559424
3945.000000	100.558931
3944.000000	100.559004
3943.000000	100.559793
3942.000000	100.561222
3941.000000	100.563132
3940.000000	100.565237
3939.000000	100.566834
3938.000000	100.566906
3937.000000	100.564988
3936.000000	100.561944
3935.000000	100.559537
3934.000000	100.558999
3933.000000	100.560006
3932.000000	100.561117
3931.000000	100.561273
3930.000000	100.560658
3929.000000	100.560178
3928.000000	100.560267
3927.000000	100.560356
3926.000000	100.559529
3925.000000	100.557524
3924.000000	100.555010
3923.000000	100.552924
3922.000000	100.551793
3921.000000	100.551667
3920.000000	100.552353
3919.000000	100.553574
3918.000000	100.555108
3917.000000	100.556877
3916.000000	100.558744
3915.000000	100.560432
3914.000000	100.561644
3913.000000	100.562416
3912.000000	100.563079
3911.000000	100.563791
3910.000000	100.564289
3909.000000	100.564188
3908.000000	100.563411
3907.000000	100.562147
3906.000000	100.560701
3905.000000	100.559361
3904.000000	100.558158
3903.000000	100.556758
3902.000000	100.554919
3901.000000	100.553035
3900.000000	100.551751
3899.000000	100.551100
3898.000000	100.550538
3897.000000	100.550065
3896.000000	100.550443
3895.000000	100.552212
3894.000000	100.554933
3893.000000	100.557878
3892.000000	100.560668
3891.000000	100.562514
3890.000000	100.562207
3889.000000	100.559350
3888.000000	100.555315
3887.000000	100.552965
3886.000000	100.553858
3885.000000	100.556202
3884.000000	100.557430
3883.000000	100.557021
3882.000000	100.556390
3881.000000	100.557197
3880.000000	100.559471
3879.000000	100.561602
3878.000000	100.562031
3877.000000	100.560581
3876.000000	100.558803
3875.000000	100.558422
3874.000000	100.559057
3873.000000	100.558536
3872.000000	100.555957
3871.000000	100.553676
3870.000000	100.554149
3869.000000	100.556370
3868.000000	100.557716
3867.000000	100.557335
3866.000000	100.556407
3865.000000	100.556130
3864.000000	100.556200
3863.000000	100.555936
3862.000000	100.555410
3861.000000	100.555135
3860.000000	100.555464
3859.000000	100.556457
3858.000000	100.557794
3857.000000	100.558225
3856.000000	100.556669
3855.000000	100.555876
3854.000000	100.559193
3853.000000	100.563208
3852.000000	100.562970
3851.000000	100.559426
3850.000000	100.556305
3849.000000	100.555640
3848.000000	100.556971
3847.000000	100.558589
3846.000000	100.558985
3845.000000	100.558018
3844.000000	100.556880
3843.000000	100.556779
3842.000000	100.557610
3841.000000	100.558384
3840.000000	100.558656
3839.000000	100.558723
3838.000000	100.558390
3837.000000	100.556775
3836.000000	100.553684
3835.000000	100.550024
3834.000000	100.546909
3833.000000	100.545278
3832.000000	100.545459
3831.000000	100.546645
3830.000000	100.547307
3829.000000	100.546759
3828.000000	100.546186
3827.000000	100.547409
3826.000000	100.550556
3825.000000	100.553641
3824.000000	100.554504
3823.000000	100.553721
3822.000000	100.554409
3821.000000	100.557401
3820.000000	100.560177
3819.000000	100.560477
3818.000000	100.558526
3817.000000	100.557154
3816.000000	100.558286
3815.000000	100.560013
3814.000000	100.559804
3813.000000	100.557941
3812.000000	100.556515
3811.000000	100.556326
3810.000000	100.555795
3809.000000	100.553850
3808.000000	100.552588
3807.000000	100.554401
3806.000000	100.558126
3805.000000	100.560532
3804.000000	100.559705
3803.000000	100.557259
3802.000000	100.556356
3801.000000	100.556712
3800.000000	100.555728
3799.000000	100.552430
3798.000000	100.547753
3797.000000	100.543339
3796.000000	100.540334
3795.000000	100.538931
3794.000000	100.538891
3793.000000	100.540126
3792.000000	100.542595
3791.000000	100.545720
3790.000000	100.548285
3789.000000	100.549116
3788.000000	100.547745
3787.000000	100.544576
3786.000000	100.540903
3785.000000	100.538646
3784.000000	100.539108
3783.000000	100.541702
3782.000000	100.544416
3781.000000	100.546035
3780.000000	100.547006
3779.000000	100.547615
3778.000000	100.546735
3777.000000	100.543593
3776.000000	100.539705
3775.000000	100.537568
3774.000000	100.537816
3773.000000	100.538902
3772.000000	100.539611
3771.000000	100.540560
3770.000000	100.542412
3769.000000	100.544519
3768.000000	100.546272
3767.000000	100.548077
3766.000000	100.550241
3765.000000	100.551788
3764.000000	100.551237
3763.000000	100.548256
3762.000000	100.544071
3761.000000	100.540570
3760.000000	100.538930
3759.000000	100.539123
3758.000000	100.540722
3757.000000	100.543570
3756.000000	100.547517
3755.000000	100.551676
3754.000000	100.554533
3753.000000	100.555071
3752.000000	100.553840
3751.000000	100.552546
3750.000000	100.552055
3749.000000	100.551906
3748.000000	100.551221
3747.000000	100.548450
3746.000000	100.543998
3745.000000	100.541350
3744.000000	100.540893
3743.000000	100.539841
3742.000000	100.537572
3741.000000	100.535861
3740.000000	100.536122
3739.000000	100.537709
3738.000000	100.539088
3737.000000	100.539889
3736.000000	100.540833
3735.000000	100.542264
3734.000000	100.543621
3733.000000	100.544285
3732.000000	100.543912
3731.000000	100.542087
3730.000000	100.538668
3729.000000	100.534572
3728.000000	100.531755
3727.000000	100.531381
3726.000000	100.532299
3725.000000	100.532769
3724.000000	100.532841
3723.000000	100.533661
3722.000000	100.535321
3721.000000	100.536790
3720.000000	100.537493
3719.000000	100.537752
3718.000000	100.537940
3717.000000	100.538117
3716.000000	100.538408
3715.000000	100.539092
3714.000000	100.540329
3713.000000	100.542033
3712.000000	100.543328
3711.000000	100.542543
3710.000000	100.538871
3709.000000	100.533987
3708.000000	100.531103
3707.000000	100.532048
3706.000000	100.535595
3705.000000	100.538948
3704.000000	100.540526
3703.000000	100.540999
3702.000000	100.541776
3701.000000	100.543128
3700.000000	100.544242
3699.000000	100.544279
3698.000000	100.543086
3697.000000	100.541263
3696.000000	100.539704
3695.000000	100.539120
3694.000000	100.539991
3693.000000	100.542730
3692.000000	100.547351
3691.000000	100.552715
3690.000000	100.556781
3689.000000	100.557861
3688.000000	100.555883
3687.000000	100.552509
3686.000000	100.549751
3685.000000	100.548819
3684.000000	100.549962
3683.000000	100.552403
3682.000000	100.555264
3681.000000	100.559013
3680.000000	100.564791
3679.000000	100.571659
3678.000000	100.576149
3677.000000	100.576925
3676.000000	100.576663
3675.000000	100.577023
3674.000000	100.576719
3673.000000	100.574704
3672.000000	100.572584
3671.000000	100.574076
3670.000000	100.580267
3669.000000	100.587420
3668.000000	100.591647
3667.000000	100.592250
3666.000000	100.590752
3665.000000	100.589420
3664.000000	100.590217
3663.000000	100.593650
3662.000000	100.598622
3661.000000	100.603766
3660.000000	100.608479
3659.000000	100.612261
3658.000000	100.614490
3657.000000	100.615597
3656.000000	100.617058
3655.000000	100.619811
3654.000000	100.623173
3653.000000	100.625814
3652.000000	100.627770
3651.000000	100.630586
3650.000000	100.634949
3649.000000	100.640090
3648.000000	100.645473
3647.000000	100.650817
3646.000000	100.655377
3645.000000	100.659034
3644.000000	100.663159
3643.000000	100.669150
3642.000000	100.676452
3641.000000	100.682796
3640.000000	100.686473
3639.000000	100.687426
3638.000000	100.686296
3637.000000	100.683821
3636.000000	100.681452
3635.000000	100.681338
3634.000000	100.684804
3633.000000	100.691442
3632.000000	100.699586
3631.000000	100.707517
3630.000000	100.714360
3629.000000	100.719276
3628.000000	100.721846
3627.000000	100.723490
3626.000000	100.726194
3625.000000	100.731064
3624.000000	100.738099
3623.000000	100.745902
3622.000000	100.752366
3621.000000	100.756793
3620.000000	100.760934
3619.000000	100.766657
3618.000000	100.773231
3617.000000	100.778545
3616.000000	100.782135
3615.000000	100.785596
3614.000000	100.790579
3613.000000	100.797347
3612.000000	100.805106
3611.000000	100.812765
3610.000000	100.819289
3609.000000	100.824368
3608.000000	100.829034
3607.000000	100.834631
3606.000000	100.841045
3605.000000	100.846869
3604.000000	100.851215
3603.000000	100.854507
3602.000000	100.857771
3601.000000	100.861679
3600.000000	100.866310
3599.000000	100.871371
3598.000000	100.876402
3597.000000	100.881080
3596.000000	100.885553
3595.000000	100.890237
3594.000000	100.895314
3593.000000	100.900785
3592.000000	100.906635
3591.000000	100.912495
3590.000000	100.917626
3589.000000	100.921731
3588.000000	100.925641
3587.000000	100.930597
3586.000000	100.936854
3585.000000	100.943805
3584.000000	100.951136
3583.000000	100.958901
3582.000000	100.966955
3581.000000	100.975176
3580.000000	100.983939
3579.000000	100.993520
3578.000000	101.003128
3577.000000	101.011313
3576.000000	101.017350
3575.000000	101.021705
3574.000000	101.025301
3573.000000	101.028926
3572.000000	101.033075
3571.000000	101.037757
3570.000000	101.042775
3569.000000	101.048501
3568.000000	101.055725
3567.000000	101.064361
3566.000000	101.073111
3565.000000	101.081178
3564.000000	101.089437
3563.000000	101.099068
3562.000000	101.109687
3561.000000	101.119685
3560.000000	101.127989
3559.000000	101.134668
3558.000000	101.140239
3557.000000	101.145297
3556.000000	101.150596
3555.000000	101.156567
3554.000000	101.162830
3553.000000	101.168845
3552.000000	101.174705
3551.000000	101.180583
3550.000000	101.186041
3549.000000	101.190821
3548.000000	101.195798
3547.000000	101.202139
3546.000000	101.209841
3545.000000	101.218025
3544.000000	101.226196
3543.000000	101.234182
3542.000000	101.241357
3541.000000	101.247158
3540.000000	101.252248
3539.000000	101.258109
3538.000000	101.265382
3537.000000	101.273376
3536.000000	101.281158
3535.000000	101.288365
3534.000000	101.295018
3533.000000	101.301323
3532.000000	101.307716
3531.000000	101.314484
3530.000000	101.321378
3529.000000	101.328025
3528.000000	101.334404
3527.000000	101.340467
3526.000000	101.345918
3525.000000	101.351110
3524.000000	101.357520
3523.000000	101.366291
3522.000000	101.376618
3521.000000	101.386533
3520.000000	101.394967
3519.000000	101.402215
3518.000000	101.408923
3517.000000	101.415613
3516.000000	101.422795
3515.000000	101.430416
3514.000000	101.437357
3513.000000	101.442500
3512.000000	101.446310
3511.000000	101.450528
3510.000000	101.456364
3509.000000	101.463731
3508.000000	101.471913
3507.000000	101.479962
3506.000000	101.486614
3505.000000	101.490902
3504.000000	101.493138
3503.000000	101.494738
3502.000000	101.497162
3501.000000	101.501471
3500.000000	101.508535
3499.000000	101.518650
3498.000000	101.530883
3497.000000	101.543499
3496.000000	101.554991
3495.000000	101.564412
3494.000000	101.571353
3493.000000	101.576482
3492.000000	101.581575
3491.000000	101.587900
3490.000000	101.594786
3489.000000	101.600768
3488.000000	101.605900
3487.000000	101.611808
3486.000000	101.619473
3485.000000	101.628027
3484.000000	101.635869
3483.000000	101.642187
3482.000000	101.647317
3481.000000	101.652300
3480.000000	101.658089
3479.000000	101.664737
3478.000000	101.671622
3477.000000	101.678719
3476.000000	101.686972
3475.000000	101.696718
3474.000000	101.706477
3473.000000	101.714384
3472.000000	101.720423
3471.000000	101.726150
3470.000000	101.732535
3469.000000	101.739136
3468.000000	101.745097
3467.000000	101.749880
3466.000000	101.753235
3465.000000	101.755656
3464.000000	101.758922
3463.000000	101.765063
3462.000000	101.774434
3461.000000	101.785315
3460.000000	101.795354
3459.000000	101.802928
3458.000000	101.807720
3457.000000	101.811089
3456.000000	101.815522
3455.000000	101.822579
3454.000000	101.831316
3453.000000	101.839539
3452.000000	101.846346
3451.000000	101.852524
3450.000000	101.858827
3449.000000	101.865110
3448.000000	101.871190
3447.000000	101.877542
3446.000000	101.884820
3445.000000	101.893309
3444.000000	101.902789
3443.000000	101.912354
3442.000000	101.920622
3441.000000	101.926975
3440.000000	101.932443
3439.000000	101.938582
3438.000000	101.945754
3437.000000	101.953274
3436.000000	101.960801
3435.000000	101.968626
3434.000000	101.976831
3433.000000	101.985196
3432.000000	101.993803
3431.000000	102.002789
3430.000000	102.011628
3429.000000	102.019535
3428.000000	102.026495
3427.000000	102.033204
3426.000000	102.040230
3425.000000	102.047928
3424.000000	102.056719
3423.000000	102.066501
3422.000000	102.076132
3421.000000	102.084577
3420.000000	102.092414
3419.000000	102.101186
3418.000000	102.111486
3417.000000	102.122494
3416.000000	102.133039
3415.000000	102.142078
3414.000000	102.148643
3413.000000	102.152681
3412.000000	102.155833
3411.000000	102.160190
3410.000000	102.166241
3409.000000	102.173065
3408.000000	102.180346
3407.000000	102.188881
3406.000000	102.198917
3405.000000	102.209193
3404.000000	102.218142
3403.000000	102.225283
3402.000000	102.231235
3401.000000	102.237070
3400.000000	102.243776
3399.000000	102.251741
3398.000000	102.260591
3397.000000	102.269871
3396.000000	102.279648
3395.000000	102.289893
3394.000000	102.299778
3393.000000	102.308506
3392.000000	102.316469
3391.000000	102.324607
3390.000000	102.332935
3389.000000	102.340752
3388.000000	102.348102
3387.000000	102.355856
3386.000000	102.364395
3385.000000	102.373320
3384.000000	102.382475
3383.000000	102.392145
3382.000000	102.402034
3381.000000	102.411124
3380.000000	102.418982
3379.000000	102.426478
3378.000000	102.434918
3377.000000	102.445002
3376.000000	102.456684
3375.000000	102.469274
3374.000000	102.481541
3373.000000	102.492360
3372.000000	102.501495
3371.000000	102.509463
3370.000000	102.516908
3369.000000	102.524685
3368.000000	102.534102
3367.000000	102.546068
3366.000000	102.560028
3365.000000	102.574518
3364.000000	102.588687
3363.000000	102.602484
3362.000000	102.615562
3361.000000	102.627209
3360.000000	102.637523
3359.000000	102.647723
3358.000000	102.659024
3357.000000	102.671759
3356.000000	102.685613
3355.000000	102.700026
3354.000000	102.714406
3353.000000	102.728603
3352.000000	102.743221
3351.000000	102.758794
3350.000000	102.774782
3349.000000	102.790125
3348.000000	102.804757
3347.000000	102.819746
3346.000000	102.835867
3345.000000	102.852784
3344.000000	102.869694
3343.000000	102.886130
3342.000000	102.902084
3341.000000	102.917959
3340.000000	102.934506
3339.000000	102.952279
3338.000000	102.971017
3337.000000	102.989899
3336.000000	103.008274
3335.000000	103.025893
3334.000000	103.042879
3333.000000	103.060022
3332.000000	103.078657
3331.000000	103.099463
3330.000000	103.121569
3329.000000	103.143435
3328.000000	103.164319
3327.000000	103.184329
3326.000000	103.203823
3325.000000	103.223722
3324.000000	103.245823
3323.000000	103.271460
3322.000000	103.299724
3321.000000	103.327973
3320.000000	103.354232
3319.000000	103.378396
3318.000000	103.401410
3317.000000	103.424264
3316.000000	103.447694
3315.000000	103.471830
3314.000000	103.495906
3313.000000	103.519014
3312.000000	103.541287
3311.000000	103.563813
3310.000000	103.587578
3309.000000	103.613110
3308.000000	103.640792
3307.000000	103.670540
3306.000000	103.701207
3305.000000	103.731175
3304.000000	103.759661
3303.000000	103.786947
3302.000000	103.813585
3301.000000	103.840040
3300.000000	103.866857
3299.000000	103.894348
3298.000000	103.922155
3297.000000	103.949719
3296.000000	103.976867
3295.000000	104.003342
3294.000000	104.028340
3293.000000	104.051446
3292.000000	104.073675
3291.000000	104.096463
3290.000000	104.119797
3289.000000	104.142391
3288.000000	104.163436
3287.000000	104.183160
3286.000000	104.201772
3285.000000	104.218960
3284.000000	104.234651
3283.000000	104.249331
3282.000000	104.263400
3281.000000	104.276724
3280.000000	104.288708
3279.000000	104.298378
3278.000000	104.304666
3277.000000	104.307328
3276.000000	104.307344
3275.000000	104.305677
3274.000000	104.302142
3273.000000	104.296411
3272.000000	104.289565
3271.000000	104.283450
3270.000000	104.278460
3269.000000	104.272832
3268.000000	104.264083
3267.000000	104.250447
3266.000000	104.231551
3265.000000	104.208847
3264.000000	104.185276
3263.000000	104.163356
3262.000000	104.143230
3261.000000	104.123136
3260.000000	104.101413
3259.000000	104.077603
3258.000000	104.052123
3257.000000	104.025772
3256.000000	103.999336
3255.000000	103.972891
3254.000000	103.945876
3253.000000	103.918474
3252.000000	103.892078
3251.000000	103.867523
3250.000000	103.843784
3249.000000	103.819649
3248.000000	103.795856
3247.000000	103.773910
3246.000000	103.753454
3245.000000	103.732609
3244.000000	103.710780
3243.000000	103.689232
3242.000000	103.668726
3241.000000	103.648293
3240.000000	103.626726
3239.000000	103.603917
3238.000000	103.580307
3237.000000	103.556356
3236.000000	103.533160
3235.000000	103.512474
3234.000000	103.495210
3233.000000	103.480313
3232.000000	103.465575
3231.000000	103.449430
3230.000000	103.432013
3229.000000	103.414824
3228.000000	103.399296
3227.000000	103.385393
3226.000000	103.371938
3225.000000	103.358475
3224.000000	103.345853
3223.000000	103.334388
3222.000000	103.322520
3221.000000	103.308522
3220.000000	103.292819
3219.000000	103.277307
3218.000000	103.262956
3217.000000	103.249485
3216.000000	103.236906
3215.000000	103.225646
3214.000000	103.215145
3213.000000	103.203786
3212.000000	103.190432
3211.000000	103.175122
3210.000000	103.158522
3209.000000	103.141727
3208.000000	103.126311
3207.000000	103.113261
3206.000000	103.101906
3205.000000	103.090939
3204.000000	103.080120
3203.000000	103.069829
3202.000000	103.059540
3201.000000	103.048379
3200.000000	103.036930
3199.000000	103.026660
3198.000000	103.017359
3197.000000	103.006808
3196.000000	102.993427
3195.000000	102.977950
3194.000000	102.962161
3193.000000	102.947279
3192.000000	102.933811
3191.000000	102.921608
3190.000000	102.909599
3189.000000	102.896568
3188.000000	102.882710
3187.000000	102.869526
3186.000000	102.857901
3185.000000	102.847197
3184.000000	102.836389
3183.000000	102.825064
3182.000000	102.813113
3181.000000	102.800546
3180.000000	102.787865
3179.000000	102.775589
3178.000000	102.763119
3177.000000	102.749136
3176.000000	102.733506
3175.000000	102.717853
3174.000000	102.703839
3173.000000	102.691579
3172.000000	102.679979
3171.000000	102.667872
3170.000000	102.654683
3169.000000	102.640764
3168.000000	102.627263
3167.000000	102.614982
3166.000000	102.603391
3165.000000	102.591498
3164.000000	102.579418
3163.000000	102.567979
3162.000000	102.556937
3161.000000	102.544967
3160.000000	102.531654
3159.000000	102.518178
3158.000000	102.505536
3157.000000	102.493194
3156.000000	102.480167
3155.000000	102.466625
3154.000000	102.453839
3153.000000	102.443089
3152.000000	102.434824
3151.000000	102.428300
3150.000000	102.421831
3149.000000	102.413972
3148.000000	102.404664
3147.000000	102.394741
3146.000000	102.384587
3145.000000	102.374143
3144.000000	102.364003
3143.000000	102.355277
3142.000000	102.348115
3141.000000	102.341340
3140.000000	102.333855
3139.000000	102.325604
3138.000000	102.317031
3137.000000	102.308551
3136.000000	102.300862
3135.000000	102.294799
3134.000000	102.290311
3133.000000	102.286278
3132.000000	102.281699
3131.000000	102.276525
3130.000000	102.271161
3129.000000	102.265863
3128.000000	102.260815
3127.000000	102.256034
3126.000000	102.250907
3125.000000	102.244551
3124.000000	102.236969
3123.000000	102.229256
3122.000000	102.222441
3121.000000	102.216761
3120.000000	102.212283
3119.000000	102.209530
3118.000000	102.209063
3117.000000	102.210835
3116.000000	102.214121
3115.000000	102.217703
3114.000000	102.220119
3113.000000	102.220406
3112.000000	102.218923
3111.000000	102.217136
3110.000000	102.216476
3109.000000	102.217510
3108.000000	102.219789
3107.000000	102.222045
3106.000000	102.222909
3105.000000	102.222167
3104.000000	102.221138
3103.000000	102.221321
3102.000000	102.223058
3101.000000	102.226050
3100.000000	102.230505
3099.000000	102.236615
3098.000000	102.243379
3097.000000	102.249222
3096.000000	102.253712
3095.000000	102.257595
3094.000000	102.261292
3093.000000	102.264617
3092.000000	102.267989
3091.000000	102.272503
3090.000000	102.278361
3089.000000	102.284253
3088.000000	102.288729
3087.000000	102.291363
3086.000000	102.292364
3085.000000	102.291929
3084.000000	102.290391
3083.000000	102.288442
3082.000000	102.286985
3081.000000	102.287126
3080.000000	102.290000
3079.000000	102.295707
3078.000000	102.302542
3077.000000	102.308160
3076.000000	102.311530
3075.000000	102.313065
3074.000000	102.313251
3073.000000	102.312263
3072.000000	102.310628
3071.000000	102.308967
3070.000000	102.307040
3069.000000	102.304238
3068.000000	102.301106
3067.000000	102.299087
3066.000000	102.298577
3065.000000	102.298465
3064.000000	102.297799
3063.000000	102.296570
3062.000000	102.294435
3061.000000	102.290083
3060.000000	102.282750
3059.000000	102.273466
3058.000000	102.264122
3057.000000	102.255845
3056.000000	102.248591
3055.000000	102.241523
3054.000000	102.233429
3053.000000	102.223615
3052.000000	102.212772
3051.000000	102.202360
3050.000000	102.192944
3049.000000	102.183900
3048.000000	102.174810
3047.000000	102.166006
3046.000000	102.157475
3045.000000	102.148523
3044.000000	102.139211
3043.000000	102.131085
3042.000000	102.125556
3041.000000	102.122069
3040.000000	102.118464
3039.000000	102.112741
3038.000000	102.104178
3037.000000	102.093548
3036.000000	102.082853
3035.000000	102.074180
3034.000000	102.068134
3033.000000	102.063560
3032.000000	102.059051
3031.000000	102.054261
3030.000000	102.049532
3029.000000	102.044938
3028.000000	102.040173
3027.000000	102.035025
3026.000000	102.029671
3025.000000	102.024750
3024.000000	102.021077
3023.000000	102.018805
3022.000000	102.017004
3021.000000	102.014802
3020.000000	102.012785
3019.000000	102.012350
3018.000000	102.013659
3017.000000	102.015348
3016.000000	102.016560
3015.000000	102.018177
3014.000000	102.021573
3013.000000	102.027006
3012.000000	102.033681
3011.000000	102.040431
3010.000000	102.045710
3009.000000	102.047736
3008.000000	102.045483
3007.000000	102.039332
3006.000000	102.030471
3005.000000	102.020114
3004.000000	102.009391
3003.000000	101.999219
3002.000000	101.989860
3001.000000	101.981111
3000.000000	101.973285
2999.000000	101.967405
2998.000000	101.964128
2997.000000	101.963048
2996.000000	101.963437
2995.000000	101.965164
2994.000000	101.968584
2993.000000	101.974130
2992.000000	101.982206
2991.000000	101.992998
2990.000000	102.006043
2989.000000	102.020541
2988.000000	102.036272
2987.000000	102.053573
2986.000000	102.072359
2985.000000	102.091901
2984.000000	102.111927
2983.000000	102.133277
2982.000000	102.157071
2981.000000	102.183818
2980.000000	102.213467
2979.000000	102.245508
2978.000000	102.278738
2977.000000	102.311727
2976.000000	102.344208
2975.000000	102.377473
2974.000000	102.412944
2973.000000	102.450818
2972.000000	102.490314
2971.000000	102.530731
2970.000000	102.571901
2969.000000	102.614162
2968.000000	102.658120
2967.000000	102.703839
2966.000000	102.750056
2965.000000	102.794785
2964.000000	102.836993
2963.000000	102.876976
2962.000000	102.914908
2961.000000	102.949780
2960.000000	102.979939
2959.000000	103.003995
2958.000000	103.020876
2957.000000	103.030102
2956.000000	103.032456
2955.000000	103.029535
2954.000000	103.022224
2953.000000	103.010351
2952.000000	102.994610
2951.000000	102.978041
2950.000000	102.965038
2949.000000	102.959208
2948.000000	102.962437
2947.000000	102.975238
2946.000000	102.997274
2945.000000	103.028139
2944.000000	103.068028
2943.000000	103.117559
2942.000000	103.176743
2941.000000	103.244548
2940.000000	103.319550
2939.000000	103.400136
2938.000000	103.484207
2937.000000	103.569757
2936.000000	103.656464
2935.000000	103.745969
2934.000000	103.839799
2933.000000	103.937452
2932.000000	104.036693
2931.000000	104.134983
2930.000000	104.230191
2929.000000	104.320750
2928.000000	104.405884
2927.000000	104.485044
2926.000000	104.556817
2925.000000	104.618844
2924.000000	104.669278
2923.000000	104.707670
2922.000000	104.733948
2921.000000	104.747305
2920.000000	104.746058
2919.000000	104.727695
2918.000000	104.688509
2917.000000	104.624021
2916.000000	104.531373
2915.000000	104.411750
2914.000000	104.271370
2913.000000	104.120552
2912.000000	103.971160
2911.000000	103.833097
2910.000000	103.711259
2909.000000	103.605798
2908.000000	103.514656
2907.000000	103.435684
2906.000000	103.366664
2905.000000	103.304775
2904.000000	103.247439
2903.000000	103.193622
2902.000000	103.143985
2901.000000	103.099516
2900.000000	103.060097
2899.000000	103.023938
2898.000000	102.988425
2897.000000	102.951988
2896.000000	102.915253
2895.000000	102.880076
2894.000000	102.847447
2893.000000	102.816767
2892.000000	102.787001
2891.000000	102.757827
2890.000000	102.729590
2889.000000	102.702966
2888.000000	102.678855
2887.000000	102.657927
2886.000000	102.639965
2885.000000	102.624188
2884.000000	102.610524
2883.000000	102.600019
2882.000000	102.593791
2881.000000	102.592157
2880.000000	102.594927
2879.000000	102.601855
2878.000000	102.612408
2877.000000	102.625687
2876.000000	102.640791
2875.000000	102.656704
2874.000000	102.671467
2873.000000	102.682360
2872.000000	102.687604
2871.000000	102.687595
2870.000000	102.684281
2869.000000	102.679993
2868.000000	102.677282
2867.000000	102.679136
2866.000000	102.688486
2865.000000	102.707349
2864.000000	102.736668
2863.000000	102.776693
2862.000000	102.827184
2861.000000	102.887584
2860.000000	102.957132
2859.000000	103.034587
2858.000000	103.117692
2857.000000	103.203335
2856.000000	103.288003
2855.000000	103.367714
2854.000000	103.437471
2853.000000	103.491274
2852.000000	103.522841
2851.000000	103.525411
2850.000000	103.491787
2849.000000	103.417110
2848.000000	103.303306
2847.000000	103.160558
2846.000000	103.003766
2845.000000	102.847157
2844.000000	102.701110
2843.000000	102.571962
2842.000000	102.462289
2841.000000	102.371611
2840.000000	102.297431
2839.000000	102.236240
2838.000000	102.184399
2837.000000	102.139024
2836.000000	102.098777
2835.000000	102.063608
2834.000000	102.033458
2833.000000	102.007420
2832.000000	101.984299
2831.000000	101.963299
2830.000000	101.943990
2829.000000	101.926062
2828.000000	101.909409
2827.000000	101.894082
2826.000000	101.879823
2825.000000	101.866044
2824.000000	101.852491
2823.000000	101.839476
2822.000000	101.827275
2821.000000	101.815741
2820.000000	101.804760
2819.000000	101.794553
2818.000000	101.785257
2817.000000	101.776665
2816.000000	101.768617
2815.000000	101.761163
2814.000000	101.754067
2813.000000	101.746751
2812.000000	101.739106
2811.000000	101.731850
2810.000000	101.725622
2809.000000	101.720196
2808.000000	101.714982
2807.000000	101.709871
2806.000000	101.705035
2805.000000	101.700176
2804.000000	101.694505
2803.000000	101.687445
2802.000000	101.679159
2801.000000	101.670485
2800.000000	101.662421
2799.000000	101.655456
2798.000000	101.649398
2797.000000	101.644090
2796.000000	101.640040
2795.000000	101.637709
2794.000000	101.636290
2793.000000	101.634080
2792.000000	101.630285
2791.000000	101.625726
2790.000000	101.621481
2789.000000	101.617578
2788.000000	101.613389
2787.000000	101.608621
2786.000000	101.603397
2785.000000	101.597953
2784.000000	101.592761
2783.000000	101.588457
2782.000000	101.585121
2781.000000	101.581965
2780.000000	101.578129
2779.000000	101.573523
2778.000000	101.568615
2777.000000	101.563809
2776.000000	101.559301
2775.000000	101.555120
2774.000000	101.551040
2773.000000	101.546836
2772.000000	101.542844
2771.000000	101.539769
2770.000000	101.537712
2769.000000	101.535899
2768.000000	101.533537
2767.000000	101.530343
2766.000000	101.526077
2765.000000	101.520409
2764.000000	101.513775
2763.000000	101.507673
2762.000000	101.503443
2761.000000	101.501103
2760.000000	101.499738
2759.000000	101.498516
2758.000000	101.496880
2757.000000	101.494352
2756.000000	101.490830
2755.000000	101.486789
2754.000000	101.482741
2753.000000	101.478762
2752.000000	101.474794
2751.000000	101.470997
2750.000000	101.467528
2749.000000	101.464450
2748.000000	101.462065
2747.000000	101.460637
2746.000000	101.459491
2745.000000	101.457221
2744.000000	101.453410
2743.000000	101.449466
2742.000000	101.447010
2741.000000	101.445970
2740.000000	101.444917
2739.000000	101.442812
2738.000000	101.439733
2737.000000	101.436299
2736.000000	101.433158
2735.000000	101.430795
2734.000000	101.429173
2733.000000	101.427653
2732.000000	101.425668
2731.000000	101.423280
2730.000000	101.420753
2729.000000	101.418031
2728.000000	101.415076
2727.000000	101.412219
2726.000000	101.409615
2725.000000	101.406802
2724.000000	101.403409
2723.000000	101.399885
2722.000000	101.396877
2721.000000	101.394234
2720.000000	101.391337
2719.000000	101.388176
2718.000000	101.385452
2717.000000	101.383704
2716.000000	101.382830
2715.000000	101.382269
2714.000000	101.381206
2713.000000	101.378902
2712.000000	101.375420
2711.000000	101.371812
2710.000000	101.369068
2709.000000	101.367003
2708.000000	101.364602
2707.000000	101.361253
2706.000000	101.357207
2705.000000	101.353112
2704.000000	101.349659
2703.000000	101.347443
2702.000000	101.346601
2701.000000	101.346628
2700.000000	101.346934
2699.000000	101.347375
2698.000000	101.347878
2697.000000	101.347839
2696.000000	101.346538
2695.000000	101.344100
2694.000000	101.341605
2693.000000	101.340220
2692.000000	101.340345
2691.000000	101.341304
2690.000000	101.341612
2689.000000	101.339975
2688.000000	101.336581
2687.000000	101.333172
2686.000000	101.331365
2685.000000	101.331056
2684.000000	101.330793
2683.000000	101.329436
2682.000000	101.326981
2681.000000	101.324060
2680.000000	101.321266
2679.000000	101.318951
2678.000000	101.317216
2677.000000	101.315968
2676.000000	101.315081
2675.000000	101.314389
2674.000000	101.313520
2673.000000	101.312134
2672.000000	101.310448
2671.000000	101.309052
2670.000000	101.307969
2669.000000	101.306491
2668.000000	101.304338
2667.000000	101.302393
2666.000000	101.301656
2665.000000	101.301839
2664.000000	101.301594
2663.000000	101.299855
2662.000000	101.296561
2661.000000	101.292459
2660.000000	101.288677
2659.000000	101.286045
2658.000000	101.284255
2657.000000	101.282036
2656.000000	101.278777
2655.000000	101.275535
2654.000000	101.273752
2653.000000	101.273321
2652.000000	101.272754
2651.000000	101.270944
2650.000000	101.267930
2649.000000	101.264182
2648.000000	101.260139
2647.000000	101.256428
2646.000000	101.253553
2645.000000	101.251189
2644.000000	101.248547
2643.000000	101.245639
2642.000000	101.243429
2641.000000	101.242469
2640.000000	101.242038
2639.000000	101.240971
2638.000000	101.238908
2637.000000	101.236402
2636.000000	101.234077
2635.000000	101.231945
2634.000000	101.229503
2633.000000	101.226534
2632.000000	101.223769
2631.000000	101.222331
2630.000000	101.222316
2629.000000	101.222469
2628.000000	101.221761
2627.000000	101.220704
2626.000000	101.220354
2625.000000	101.220524
2624.000000	101.219981
2623.000000	101.218212
2622.000000	101.215980
2621.000000	101.214167
2620.000000	101.212937
2619.000000	101.212118
2618.000000	101.211491
2617.000000	101.210463
2616.000000	101.208199
2615.000000	101.204460
2614.000000	101.199969
2613.000000	101.195875
2612.000000	101.193160
2611.000000	101.192254
2610.000000	101.192504
2609.000000	101.192102
2608.000000	101.189444
2607.000000	101.184844
2606.000000	101.180399
2605.000000	101.177939
2604.000000	101.177480
2603.000000	101.177693
2602.000000	101.177423
2601.000000	101.176598
2600.000000	101.175944
2599.000000	101.175902
2598.000000	101.175796
2597.000000	101.174385
2596.000000	101.171395
2595.000000	101.167981
2594.000000	101.165349
2593.000000	101.163606
2592.000000	101.162379
2591.000000	101.161698
2590.000000	101.161319
2589.000000	101.159946
2588.000000	101.156434
2587.000000	101.151565
2586.000000	101.147507
2585.000000	101.145626
2584.000000	101.145673
2583.000000	101.146745
2582.000000	101.147897
2581.000000	101.148108
2580.000000	101.147012
2579.000000	101.145748
2578.000000	101.145818
2577.000000	101.146886
2576.000000	101.146819
2575.000000	101.144357
2574.000000	101.140677
2573.000000	101.137876
2572.000000	101.136639
2571.000000	101.135927
2570.000000	101.134381
2569.000000	101.131538
2568.000000	101.128041
2567.000000	101.124926
2566.000000	101.122519
2565.000000	101.120094
2564.000000	101.116959
2563.000000	101.113738
2562.000000	101.111980
2561.000000	101.112517
2560.000000	101.114539
2559.000000	101.116236
2558.000000	101.116126
2557.000000	101.114205
2556.000000	101.112184
2555.000000	101.112014
2554.000000	101.113461
2553.000000	101.113729
2552.000000	101.110468
2551.000000	101.104638
2550.000000	101.099384
2549.000000	101.096512
2548.000000	101.095307
2547.000000	101.094581
2546.000000	101.094290
2545.000000	101.094746
2544.000000	101.095453
2543.000000	101.095518
2542.000000	101.094648
2541.000000	101.093412
2540.000000	101.092762
2539.000000	101.093289
2538.000000	101.094461
2537.000000	101.094825
2536.000000	101.093492
2535.000000	101.091159
2534.000000	101.088929
2533.000000	101.086590
2532.000000	101.083238
2531.000000	101.079512
2530.000000	101.077776
2529.000000	101.079443
2528.000000	101.082876
2527.000000	101.084631
2526.000000	101.082565
2525.000000	101.077665
2524.000000	101.073131
2523.000000	101.071760
2522.000000	101.073795
2521.000000	101.077116
2520.000000	101.079540
2519.000000	101.080673
2518.000000	101.081355
2517.000000	101.081896
2516.000000	101.081496
2515.000000	101.079206
2514.000000	101.075077
2513.000000	101.070500
2512.000000	101.067445
2511.000000	101.066689
2510.000000	101.066567
2509.000000	101.064495
2508.000000	101.060227
2507.000000	101.056636
2506.000000	101.056340
2505.000000	101.058570
2504.000000	101.060495
2503.000000	101.060716
2502.000000	101.060023
2501.000000	101.059343
2500.000000	101.058697
2499.000000	101.058101
2498.000000	101.057883
2497.000000	101.057783
2496.000000	101.056797
2495.000000	101.054214
2494.000000	101.050209
2493.000000	101.045603
2492.000000	101.041842
2491.000000	101.040759
2490.000000	101.043037
2489.000000	101.046810
2488.000000	101.048840
2487.000000	101.047454
2486.000000	101.043751
2485.000000	101.040113
2484.000000	101.038261
2483.000000	101.038528
2482.000000	101.039987
2481.000000	101.041119
2480.000000	101.040957
2479.000000	101.039672
2478.000000	101.037783
2477.000000	101.035360
2476.000000	101.032572
2475.000000	101.030371
2474.000000	101.029728
2473.000000	101.030628
2472.000000	101.032510
2471.000000	101.034915
2470.000000	101.036756
2469.000000	101.035993
2468.000000	101.031720
2467.000000	101.026191
2466.000000	101.023178
2465.000000	101.024260
2464.000000	101.027692
2463.000000	101.030522
2462.000000	101.030639
2461.000000	101.027295
2460.000000	101.021344
2459.000000	101.015169
2458.000000	101.011044
2457.000000	101.009371
2456.000000	101.009222
2455.000000	101.010119
2454.000000	101.012148
2453.000000	101.014817
2452.000000	101.017315
2451.000000	101.019556
2450.000000	101.021438
2449.000000	101.021367
2448.000000	101.017454
2447.000000	101.010412
2446.000000	101.003719
2445.000000	101.000446
2444.000000	101.000767
2443.000000	101.002413
2442.000000	101.002410
2441.000000	100.998937
2440.000000	100.993169
2439.000000	100.989141
2438.000000	100.990080
2437.000000	100.995027
2436.000000	101.000452
2435.000000	101.004696
2434.000000	101.008537
2433.000000	101.011714
2432.000000	101.011951
2431.000000	101.008319
2430.000000	101.003230
2429.000000	100.999729
2428.000000	100.998371
2427.000000	100.997627
2426.000000	100.995855
2425.000000	100.992059
2424.000000	100.986411
2423.000000	100.981107
2422.000000	100.979238
2421.000000	100.981488
2420.000000	100.984975
2419.000000	100.986295
2418.000000	100.984700
2417.000000	100.981669
2416.000000	100.978821
2415.000000	100.977248
2414.000000	100.977544
2413.000000	100.978938
2412.000000	100.979167
2411.000000	100.976576
2410.000000	100.972075
2409.000000	100.968180
2408.000000	100.966586
2407.000000	100.967299
2406.000000	100.969481
2405.000000	100.972092
2404.000000	100.973919
2403.000000	100.973893
2402.000000	100.971634
2401.000000	100.967610
2400.000000	100.962913
2399.000000	100.958836
2398.000000	100.956278
2397.000000	100.955488
2396.000000	100.956531
2395.000000	100.959482
2394.000000	100.963485
2393.000000	100.966270
2392.000000	100.965945
2391.000000	100.963213
2390.000000	100.960663
2389.000000	100.959868
2388.000000	100.960263
2387.000000	100.960794
2386.000000	100.961234
2385.000000	100.961624
2384.000000	100.961794
2383.000000	100.961902
2382.000000	100.962314
2381.000000	100.962563
2380.000000	100.961695
2379.000000	100.960179
2378.000000	100.960119
2377.000000	100.962601
2376.000000	100.965892
2375.000000	100.967334
2374.000000	100.966078
2373.000000	100.963038
2372.000000	100.959365
2371.000000	100.956367
2370.000000	100.955609
2369.000000	100.957290
2368.000000	100.959420
2367.000000	100.960272
2366.000000	100.960457
2365.000000	100.960756
2364.000000	100.959594
2363.000000	100.955462
2362.000000	100.950706
2361.000000	100.949726
2360.000000	100.953243
2359.000000	100.957037
2358.000000	100.957133
2357.000000	100.953941
2356.000000	100.950877
2355.000000	100.950347
2354.000000	100.951804
2353.000000	100.952951
2352.000000	100.952319
2351.000000	100.950770
2350.000000	100.950355
2349.000000	100.952206
2348.000000	100.955580
2347.000000	100.958356
2346.000000	100.958467
2345.000000	100.955425
2344.000000	100.950713
2343.000000	100.946246
2342.000000	100.942549
2341.000000	100.938862
2340.000000	100.935350
2339.000000	100.934241
2338.000000	100.937273
2337.000000	100.942688
2336.000000	100.946740
2335.000000	100.947966
2334.000000	100.947849
2333.000000	100.947627
2332.000000	100.946846
2331.000000	100.945654
2330.000000	100.945589
2329.000000	100.947077
2328.000000	100.948012
2327.000000	100.946184
2326.000000	100.941679
2325.000000	100.936128
2324.000000	100.931076
2323.000000	100.927690
2322.000000	100.926550
2321.000000	100.926773
2320.000000	100.926569
2319.000000	100.925654
2318.000000	100.925577
2317.000000	100.927046
2316.000000	100.928559
2315.000000	100.928711
2314.000000	100.927960
2313.000000	100.927008
2312.000000	100.925247
2311.000000	100.922497
2310.000000	100.920534
2309.000000	100.920957
2308.000000	100.922719
2307.000000	100.923700
2306.000000	100.923700
2305.000000	100.923977
2304.000000	100.924723
2303.000000	100.925147
2302.000000	100.925501
2301.000000	100.926904
2300.000000	100.929023
2299.000000	100.929821
2298.000000	100.927951
2297.000000	100.924185
2296.000000	100.920184
2295.000000	100.916964
2294.000000	100.914715
2293.000000	100.913158
2292.000000	100.911930
2291.000000	100.911273
2290.000000	100.912258
2289.000000	100.915508
2288.000000	100.919814
2287.000000	100.922699
2286.000000	100.922273
2285.000000	100.918099
2284.000000	100.910915
2283.000000	100.902441
2282.000000	100.895106
2281.000000	100.890902
2280.000000	100.890286
2279.000000	100.892359
2278.000000	100.895700
2277.000000	100.898935
2276.000000	100.901495
2275.000000	100.904164
2274.000000	100.907619
2273.000000	100.910107
2272.000000	100.908262
2271.000000	100.901218
2270.000000	100.892471
2269.000000	100.886803
2268.000000	100.886571
2267.000000	100.891251
2266.000000	100.898252
2265.000000	100.903160
2264.000000	100.901986
2263.000000	100.895127
2262.000000	100.887231
2261.000000	100.881561
2260.000000	100.876650
2259.000000	100.870284
2258.000000	100.864372
2257.000000	100.863250
2256.000000	100.868661
2255.000000	100.878668
2254.000000	100.889880
2253.000000	100.898549
2252.000000	100.901455
2251.000000	100.898696
2250.000000	100.894705
2249.000000	100.894354
2248.000000	100.898401
2247.000000	100.903660
2246.000000	100.906167
2245.000000	100.903336
2244.000000	100.895388
2243.000000	100.886034
2242.000000	100.879417
2241.000000	100.875198
2240.000000	100.869482
2239.000000	100.861956
2238.000000	100.858329
2237.000000	100.863216
2236.000000	100.874082
2235.000000	100.884923
2234.000000	100.892327
2233.000000	100.894855
2232.000000	100.890769
2231.000000	100.881054
2230.000000	100.871713
2229.000000	100.868108
2228.000000	100.868471
2227.000000	100.867075
2226.000000	100.862210
2225.000000	100.857243
2224.000000	100.855149
2223.000000	100.855427
2222.000000	100.855628
2221.000000	100.853810
2220.000000	100.851093
2219.000000	100.852965
2218.000000	100.864571
2217.000000	100.882716
2216.000000	100.896587
2215.000000	100.899330
2214.000000	100.894856
2213.000000	100.890631
2212.000000	100.888962
2211.000000	100.889123
2210.000000	100.892748
2209.000000	100.901236
2208.000000	100.911045
2207.000000	100.916498
2206.000000	100.914939
2205.000000	100.906593
2204.000000	100.893903
2203.000000	100.884046
2202.000000	100.886107
2201.000000	100.900447
2200.000000	100.915769
2199.000000	100.921778
2198.000000	100.919142
2197.000000	100.912380
2196.000000	100.900377
2195.000000	100.881808
2194.000000	100.864171
2193.000000	100.857763
2192.000000	100.863410
2191.000000	100.873750
2190.000000	100.883693
2189.000000	100.892405
2188.000000	100.898548
2187.000000	100.900821
2186.000000	100.900417
2185.000000	100.897262
2184.000000	100.888486
2183.000000	100.876378
2182.000000	100.870930
2181.000000	100.876144
2180.000000	100.881201
2179.000000	100.874915
2178.000000	100.861726
2177.000000	100.853351
2176.000000	100.851011
2175.000000	100.847926
2174.000000	100.844283
2173.000000	100.846718
2172.000000	100.856115
2171.000000	100.867191
2170.000000	100.877102
2169.000000	100.884237
2168.000000	100.882279
2167.000000	100.867611
2166.000000	100.850826
2165.000000	100.847939
2164.000000	100.859188
2163.000000	100.868247
2162.000000	100.863659
2161.000000	100.850458
2160.000000	100.840019
2159.000000	100.838227
2158.000000	100.844055
2157.000000	100.850731
2156.000000	100.850833
2155.000000	100.847128
2154.000000	100.851963
2153.000000	100.869855
2152.000000	100.888761
2151.000000	100.896070
2150.000000	100.894783
2149.000000	100.894942
2148.000000	100.896675
2147.000000	100.893273
2146.000000	100.885932
2145.000000	100.883382
2144.000000	100.888936
2143.000000	100.897208
2142.000000	100.902304
2141.000000	100.901969
2140.000000	100.896102
2139.000000	100.887868
2138.000000	100.884010
2137.000000	100.887850
2136.000000	100.894160
2135.000000	100.896505
2134.000000	100.896458
2133.000000	100.899590
2132.000000	100.905902
2131.000000	100.910448
2130.000000	100.910808
2129.000000	100.908612
2128.000000	100.905422
2127.000000	100.901867
2126.000000	100.899522
2125.000000	100.899405
2124.000000	100.899554
2123.000000	100.897616
2122.000000	100.894747
2121.000000	100.893831
2120.000000	100.895177
2119.000000	100.896900
2118.000000	100.897929
2117.000000	100.897818
2116.000000	100.895615
2115.000000	100.891898
2114.000000	100.889638
2113.000000	100.889876
2112.000000	100.889148
2111.000000	100.884895
2110.000000	100.880613
2109.000000	100.881161
2108.000000	100.885451
2107.000000	100.888355
2106.000000	100.887541
2105.000000	100.884023
2104.000000	100.878771
2103.000000	100.873963
2102.000000	100.875086
2101.000000	100.885526
2100.000000	100.900044
2099.000000	100.909022
2098.000000	100.908601
2097.000000	100.902736
2096.000000	100.896623
2095.000000	100.892506
2094.000000	100.890520
2093.000000	100.888959
2092.000000	100.884991
2091.000000	100.879072
2090.000000	100.876755
2089.000000	100.882225
2088.000000	100.892012
2087.000000	100.899392
2086.000000	100.902548
2085.000000	100.903612
2084.000000	100.902518
2083.000000	100.897546
2082.000000	100.890498
2081.000000	100.885606
2080.000000	100.884096
2079.000000	100.884604
2078.000000	100.887437
2077.000000	100.893027
2076.000000	100.897239
2075.000000	100.894188
2074.000000	100.883570
2073.000000	100.870815
2072.000000	100.860870
2071.000000	100.855638
2070.000000	100.855529
2069.000000	100.858782
2068.000000	100.861287
2067.000000	100.861361
2066.000000	100.862122
2065.000000	100.865361
2064.000000	100.867130
2063.000000	100.864264
2062.000000	100.860347
2061.000000	100.859680
2060.000000	100.860703
2059.000000	100.861726
2058.000000	100.867261
2057.000000	100.880387
2056.000000	100.893507
2055.000000	100.895503
2054.000000	100.884686
2053.000000	100.866859
2052.000000	100.845625
2051.000000	100.823684
2050.000000	100.808824
2049.000000	100.807112
2048.000000	100.813085
2047.000000	100.818467
2046.000000	100.825265
2045.000000	100.837106
2044.000000	100.845157
2043.000000	100.838685
2042.000000	100.823797
2041.000000	100.815428
2040.000000	100.815086
2039.000000	100.813489
2038.000000	100.810870
2037.000000	100.815261
2036.000000	100.823025
2035.000000	100.821536
2034.000000	100.812069
2033.000000	100.810483
2032.000000	100.823639
2031.000000	100.842717
2030.000000	100.858826
2029.000000	100.868721
2028.000000	100.867860
2027.000000	100.853966
2026.000000	100.835198
2025.000000	100.821188
2024.000000	100.810770
2023.000000	100.801229
2022.000000	100.801034
2021.000000	100.816779
2020.000000	100.836233
2019.000000	100.843173
2018.000000	100.841482
2017.000000	100.846145
2016.000000	100.857256
2015.000000	100.862850
2014.000000	100.860926
2013.000000	100.858233
2012.000000	100.853485
2011.000000	100.841353
2010.000000	100.828332
2009.000000	100.825963
2008.000000	100.831789
2007.000000	100.835525
2006.000000	100.838786
2005.000000	100.848457
2004.000000	100.858594
2003.000000	100.858808
2002.000000	100.854028
2001.000000	100.856640
2000.000000	100.863523
1999.000000	100.860620
1998.000000	100.847520
1997.000000	100.838780
1996.000000	100.840690
1995.000000	100.843837
1994.000000	100.839997
1993.000000	100.831309
1992.000000	100.821055
1991.000000	100.808970
1990.000000	100.797592
1989.000000	100.790890
1988.000000	100.786786
1987.000000	100.782071
1986.000000	100.781554
1985.000000	100.789641
1984.000000	100.797224
1983.000000	100.791962
1982.000000	100.779105
1981.000000	100.776261
1980.000000	100.788036
1979.000000	100.801164
1978.000000	100.803851
1977.000000	100.793730
1976.000000	100.770424
1975.000000	100.740939
1974.000000	100.726725
1973.000000	100.742698
1972.000000	100.773903
1971.000000	100.792815
1970.000000	100.792930
1969.000000	100.787358
1968.000000	100.783778
1967.000000	100.782354
1966.000000	100.791589
1965.000000	100.820679
1964.000000	100.857924
1963.000000	100.878344
1962.000000	100.871945
1961.000000	100.849806
1960.000000	100.825580
1959.000000	100.805993
1958.000000	100.796247
1957.000000	100.797644
1956.000000	100.801029
1955.000000	100.797120
1954.000000	100.790947
1953.000000	100.793964
1952.000000	100.805552
1951.000000	100.814743
1950.000000	100.817625
1949.000000	100.819551
1948.000000	100.821875
1947.000000	100.819896
1946.000000	100.813666
1945.000000	100.809489
1944.000000	100.810657
1943.000000	100.815311
1942.000000	100.822055
1941.000000	100.829064
1940.000000	100.830000
1939.000000	100.820423
1938.000000	100.806094
1937.000000	100.796290
1936.000000	100.791445
1935.000000	100.786541
1934.000000	100.782892
1933.000000	100.786103
1932.000000	100.794672
1931.000000	100.799847
1930.000000	100.797886
1929.000000	100.792748
1928.000000	100.787757
1927.000000	100.782837
1926.000000	100.778631
1925.000000	100.777682
1924.000000	100.780139
1923.000000	100.783402
1922.000000	100.786338
1921.000000	100.788681
1920.000000	100.788695
1919.000000	100.787177
1918.000000	100.788782
1917.000000	100.794560
1916.000000	100.798441
1915.000000	100.796189
1914.000000	100.792567
1913.000000	100.794394
1912.000000	100.800608
1911.000000	100.804894
1910.000000	100.805817
1909.000000	100.805673
1908.000000	100.803567
1907.000000	100.797963
1906.000000	100.791929
1905.000000	100.789833
1904.000000	100.789912
1903.000000	100.787439
1902.000000	100.783751
1901.000000	100.783306
1900.000000	100.784633
1899.000000	100.782736
1898.000000	100.777913
1897.000000	100.775750
1896.000000	100.778823
1895.000000	100.784394
1894.000000	100.789510
1893.000000	100.792273
1892.000000	100.790110
1891.000000	100.783470
1890.000000	100.778111
1889.000000	100.777700
1888.000000	100.778736
1887.000000	100.777950
1886.000000	100.778771
1885.000000	100.784566
1884.000000	100.790489
1883.000000	100.789486
1882.000000	100.783286
1881.000000	100.778604
1880.000000	100.776345
1879.000000	100.773678
1878.000000	100.771920
1877.000000	100.774198
1876.000000	100.779052
1875.000000	100.783316
1874.000000	100.787636
1873.000000	100.791556
1872.000000	100.787684
1871.000000	100.771137
1870.000000	100.752344
1869.000000	100.746940
1868.000000	100.754351
1867.000000	100.762118
1866.000000	100.765490
1865.000000	100.767756
1864.000000	100.768905
1863.000000	100.765893
1862.000000	100.761192
1861.000000	100.761105
1860.000000	100.765563
1859.000000	100.768429
1858.000000	100.767677
1857.000000	100.766575
1856.000000	100.766326
1855.000000	100.765226
1854.000000	100.764984
1853.000000	100.768395
1852.000000	100.771213
1851.000000	100.768145
1850.000000	100.763615
1849.000000	100.767013
1848.000000	100.777398
1847.000000	100.783288
1846.000000	100.779998
1845.000000	100.776436
1844.000000	100.776847
1843.000000	100.774078
1842.000000	100.767378
1841.000000	100.762925
1840.000000	100.761879
1839.000000	100.760963
1838.000000	100.759504
1837.000000	100.760517
1836.000000	100.763929
1835.000000	100.765335
1834.000000	100.762376
1833.000000	100.755130
1832.000000	100.744178
1831.000000	100.735633
1830.000000	100.736988
1829.000000	100.745765
1828.000000	100.751457
1827.000000	100.748735
1826.000000	100.744944
1825.000000	100.748859
1824.000000	100.756463
1823.000000	100.758772
1822.000000	100.756273
1821.000000	100.754864
1820.000000	100.754980
1819.000000	100.753236
1818.000000	100.750913
1817.000000	100.752846
1816.000000	100.757159
1815.000000	100.756821
1814.000000	100.750999
1813.000000	100.745673
1812.000000	100.745271
1811.000000	100.747605
1810.000000	100.749298
1809.000000	100.751083
1808.000000	100.753816
1807.000000	100.756433
1806.000000	100.758858
1805.000000	100.761327
1804.000000	100.759824
1803.000000	100.750390
1802.000000	100.738736
1801.000000	100.735265
1800.000000	100.741564
1799.000000	100.749700
1798.000000	100.755522
1797.000000	100.761674
1796.000000	100.766737
1795.000000	100.763680
1794.000000	100.753710
1793.000000	100.750093
1792.000000	100.758228
1791.000000	100.767475
1790.000000	100.771557
1789.000000	100.774173
1788.000000	100.776146
1787.000000	100.773672
1786.000000	100.766993
1785.000000	100.761976
1784.000000	100.759439
1783.000000	100.754561
1782.000000	100.749295
1781.000000	100.750544
1780.000000	100.758173
1779.000000	100.764503
1778.000000	100.769235
1777.000000	100.779976
1776.000000	100.794512
1775.000000	100.797581
1774.000000	100.784623
1773.000000	100.774777
1772.000000	100.780788
1771.000000	100.792476
1770.000000	100.800036
1769.000000	100.805811
1768.000000	100.813847
1767.000000	100.822773
1766.000000	100.831410
1765.000000	100.840768
1764.000000	100.849900
1763.000000	100.860123
1762.000000	100.876902
1761.000000	100.901708
1760.000000	100.929528
1759.000000	100.954580
1758.000000	100.983933
1757.000000	101.033042
1756.000000	101.103045
1755.000000	101.179182
1754.000000	101.249700
1753.000000	101.313014
1752.000000	101.371802
1751.000000	101.426540
1750.000000	101.479542
1749.000000	101.540660
1748.000000	101.610349
1747.000000	101.675482
1746.000000	101.728563
1745.000000	101.773807
1744.000000	101.813775
1743.000000	101.840921
1742.000000	101.848884
1741.000000	101.844541
1740.000000	101.841502
1739.000000	101.846094
1738.000000	101.859020
1737.000000	101.869025
1736.000000	101.851166
1735.000000	101.798975
1734.000000	101.730746
1733.000000	101.666807
1732.000000	101.618283
1731.000000	101.582463
1730.000000	101.555697
1729.000000	101.538185
1728.000000	101.524531
1727.000000	101.505868
1726.000000	101.481792
1725.000000	101.460773
1724.000000	101.448736
1723.000000	101.443286
1722.000000	101.442645
1721.000000	101.445457
1720.000000	101.441857
1719.000000	101.424421
1718.000000	101.400231
1717.000000	101.381178
1716.000000	101.371648
1715.000000	101.369046
1714.000000	101.373685
1713.000000	101.389550
1712.000000	101.414756
1711.000000	101.442487
1710.000000	101.472462
1709.000000	101.509569
1708.000000	101.554618
1707.000000	101.611689
1706.000000	101.699195
1705.000000	101.829460
1704.000000	101.984193
1703.000000	102.127057
1702.000000	102.250920
1701.000000	102.411113
1700.000000	102.620318
1699.000000	102.806932
1698.000000	102.943112
1697.000000	103.059078
1696.000000	103.177289
1695.000000	103.283340
1694.000000	103.368443
1693.000000	103.451031
1692.000000	103.540136
1691.000000	103.631850
1690.000000	103.732207
1689.000000	103.855052
1688.000000	103.995675
1687.000000	104.120708
1686.000000	104.204306
1685.000000	104.281567
1684.000000	104.384066
1683.000000	104.487807
1682.000000	104.589296
1681.000000	104.707647
1680.000000	104.844478
1679.000000	104.984510
1678.000000	105.113899
1677.000000	105.233322
1676.000000	105.352649
1675.000000	105.472043
1674.000000	105.588373
1673.000000	105.708159
1672.000000	105.831407
1671.000000	105.950187
1670.000000	106.068204
1669.000000	106.196293
1668.000000	106.334366
1667.000000	106.474167
1666.000000	106.612173
1665.000000	106.751158
1664.000000	106.894796
1663.000000	107.038331
1662.000000	107.176047
1661.000000	107.315305
1660.000000	107.462798
1659.000000	107.616258
1658.000000	107.780988
1657.000000	107.967681
1656.000000	108.154888
1655.000000	108.288181
1654.000000	108.354450
1653.000000	108.374741
1652.000000	108.379362
1651.000000	108.416939
1650.000000	108.497234
1649.000000	108.594987
1648.000000	108.682885
1647.000000	108.744693
1646.000000	108.783900
1645.000000	108.829573
1644.000000	108.901912
1643.000000	108.991677
1642.000000	109.084771
1641.000000	109.181192
1640.000000	109.288561
1639.000000	109.402634
1638.000000	109.504257
1637.000000	109.585435
1636.000000	109.654463
1635.000000	109.717909
1634.000000	109.791618
1633.000000	109.894226
1632.000000	110.017668
1631.000000	110.134175
1630.000000	110.225376
1629.000000	110.296235
1628.000000	110.358772
1627.000000	110.413109
1626.000000	110.451285
1625.000000	110.466172
1624.000000	110.453721
1623.000000	110.415750
1622.000000	110.374560
1621.000000	110.361210
1620.000000	110.373329
1619.000000	110.363668
1618.000000	110.277934
1617.000000	110.105979
1616.000000	109.894741
1615.000000	109.704694
1614.000000	109.552155
1613.000000	109.410291
1612.000000	109.245294
1611.000000	109.042223
1610.000000	108.811137
1609.000000	108.570559
1608.000000	108.330600
1607.000000	108.093624
1606.000000	107.862263
1605.000000	107.637133
1604.000000	107.415016
1603.000000	107.196244
1602.000000	106.987309
1601.000000	106.793249
1600.000000	106.612623
1599.000000	106.443666
1598.000000	106.287855
1597.000000	106.144908
1596.000000	106.011971
1595.000000	105.888711
1594.000000	105.778286
1593.000000	105.681080
1592.000000	105.593309
1591.000000	105.513504
1590.000000	105.443890
1589.000000	105.384418
1588.000000	105.332265
1587.000000	105.287602
1586.000000	105.254230
1585.000000	105.233416
1584.000000	105.221499
1583.000000	105.217726
1582.000000	105.227758
1581.000000	105.257489
1580.000000	105.304596
1579.000000	105.356608
1578.000000	105.396145
1577.000000	105.416206
1576.000000	105.421493
1575.000000	105.425166
1574.000000	105.448487
1573.000000	105.492676
1572.000000	105.536120
1571.000000	105.568307
1570.000000	105.604249
1569.000000	105.655621
1568.000000	105.716554
1567.000000	105.783573
1566.000000	105.863035
1565.000000	105.963773
1564.000000	106.088978
1563.000000	106.233906
1562.000000	106.372853
1561.000000	106.461893
1560.000000	106.516184
1559.000000	106.597865
1558.000000	106.700320
1557.000000	106.810247
1556.000000	106.929414
1555.000000	107.052670
1554.000000	107.176512
1553.000000	107.298337
1552.000000	107.417933
1551.000000	107.540847
1550.000000	107.674941
1549.000000	107.820471
1548.000000	107.967266
1547.000000	108.106063
1546.000000	108.237856
1545.000000	108.370720
1544.000000	108.506057
1543.000000	108.634158
1542.000000	108.740339
1541.000000	108.821079
1540.000000	108.876341
1539.000000	108.906278
1538.000000	108.938484
1537.000000	108.995237
1536.000000	109.059801
1535.000000	109.102072
1534.000000	109.118932
1533.000000	109.130736
1532.000000	109.157198
1531.000000	109.201653
1530.000000	109.254511
1529.000000	109.305844
1528.000000	109.348099
1527.000000	109.379049
1526.000000	109.407577
1525.000000	109.446416
1524.000000	109.493889
1523.000000	109.532745
1522.000000	109.552793
1521.000000	109.559410
1520.000000	109.568606
1519.000000	109.592968
1518.000000	109.628596
1517.000000	109.660982
1516.000000	109.677284
1515.000000	109.676360
1514.000000	109.658611
1513.000000	109.616037
1512.000000	109.551083
1511.000000	109.484466
1510.000000	109.427233
1509.000000	109.351493
1508.000000	109.215521
1507.000000	109.012636
1506.000000	108.784007
1505.000000	108.593555
1504.000000	108.461571
1503.000000	108.363006
1502.000000	108.265454
1501.000000	108.152239
1500.000000	108.024300
1499.000000	107.884335
1498.000000	107.724884
1497.000000	107.539880
1496.000000	107.343505
1495.000000	107.161323
1494.000000	107.004748
1493.000000	106.860245
1492.000000	106.702907
1491.000000	106.520901
1490.000000	106.327676
1489.000000	106.148614
1488.000000	105.997624
1487.000000	105.867986
1486.000000	105.749581
1485.000000	105.642300
1484.000000	105.545608
1483.000000	105.455434
1482.000000	105.373462
1481.000000	105.309471
1480.000000	105.267235
1479.000000	105.238465
1478.000000	105.217098
1477.000000	105.209102
1476.000000	105.219182
1475.000000	105.236685
1474.000000	105.255332
1473.000000	105.288458
1472.000000	105.343819
1471.000000	105.410923
1470.000000	105.484882
1469.000000	105.566276
1468.000000	105.645167
1467.000000	105.702407
1466.000000	105.730245
1465.000000	105.741722
1464.000000	105.751326
1463.000000	105.764501
1462.000000	105.786063
1461.000000	105.822816
1460.000000	105.870773
1459.000000	105.913363
1458.000000	105.944885
1457.000000	105.972062
1456.000000	105.988441
1455.000000	105.993852
1454.000000	106.000658
1453.000000	106.011592
1452.000000	106.018735
1451.000000	106.015173
1450.000000	106.001017
1449.000000	105.980287
1448.000000	105.956465
1447.000000	105.929537
1446.000000	105.901408
1445.000000	105.874087
1444.000000	105.844982
1443.000000	105.810895
1442.000000	105.776369
1441.000000	105.751608
1440.000000	105.736635
1439.000000	105.713944
1438.000000	105.663396
1437.000000	105.586485
1436.000000	105.501502
1435.000000	105.426541
1434.000000	105.367937
1433.000000	105.318986
1432.000000	105.268860
1431.000000	105.213779
1430.000000	105.159368
1429.000000	105.114273
1428.000000	105.082746
1427.000000	105.061140
1426.000000	105.046109
1425.000000	105.042163
1424.000000	105.056726
1423.000000	105.089008
1422.000000	105.127497
1421.000000	105.157433
1420.000000	105.174922
1419.000000	105.189364
1418.000000	105.208838
1417.000000	105.238421
1416.000000	105.276970
1415.000000	105.316029
1414.000000	105.351093
1413.000000	105.385419
1412.000000	105.421174
1411.000000	105.455610
1410.000000	105.487470
1409.000000	105.519097
1408.000000	105.550210
1407.000000	105.575206
1406.000000	105.592862
1405.000000	105.609445
1404.000000	105.627950
1403.000000	105.644194
1402.000000	105.653966
1401.000000	105.656800
1400.000000	105.653626
1399.000000	105.645545
1398.000000	105.635842
1397.000000	105.628183
1396.000000	105.620121
1395.000000	105.605653
1394.000000	105.585724
1393.000000	105.568164
1392.000000	105.557174
1391.000000	105.548954
1390.000000	105.537863
1389.000000	105.520700
1388.000000	105.495487
1387.000000	105.460558
1386.000000	105.420011
1385.000000	105.382176
1384.000000	105.348634
1383.000000	105.314953
1382.000000	105.280256
1381.000000	105.248614
1380.000000	105.220596
1379.000000	105.191681
1378.000000	105.159526
1377.000000	105.125466
1376.000000	105.089000
1375.000000	105.049280
1374.000000	105.011584
1373.000000	104.983021
1372.000000	104.962220
1371.000000	104.940064
1370.000000	104.911922
1369.000000	104.880567
1368.000000	104.847343
1367.000000	104.808669
1366.000000	104.762557
1365.000000	104.711011
1364.000000	104.656545
1363.000000	104.601854
1362.000000	104.552552
1361.000000	104.514192
1360.000000	104.485338
1359.000000	104.459613
1358.000000	104.434726
1357.000000	104.413207
1356.000000	104.395123
1355.000000	104.377337
1354.000000	104.360387
1353.000000	104.348199
1352.000000	104.340716
1351.000000	104.332492
1350.000000	104.321689
1349.000000	104.312142
1348.000000	104.305331
1347.000000	104.298047
1346.000000	104.289744
1345.000000	104.284289
1344.000000	104.282396
1343.000000	104.279463
1342.000000	104.273204
1341.000000	104.266650
1340.000000	104.261193
1339.000000	104.253463
1338.000000	104.242843
1337.000000	104.233827
1336.000000	104.228159
1335.000000	104.222534
1334.000000	104.215649
1333.000000	104.210176
1332.000000	104.206531
1331.000000	104.201758
1330.000000	104.196429
1329.000000	104.195327
1328.000000	104.199492
1327.000000	104.204775
1326.000000	104.210249
1325.000000	104.219730
1324.000000	104.233009
1323.000000	104.244155
1322.000000	104.251021
1321.000000	104.258675
1320.000000	104.270530
1319.000000	104.283642
1318.000000	104.295446
1317.000000	104.307268
1316.000000	104.318256
1315.000000	104.324158
1314.000000	104.325449
1313.000000	104.328738
1312.000000	104.337123
1311.000000	104.346296
1310.000000	104.353017
1309.000000	104.359333
1308.000000	104.366222
1307.000000	104.370703
1306.000000	104.372475
1305.000000	104.375589
1304.000000	104.380776
1303.000000	104.383734
1302.000000	104.383345
1301.000000	104.383993
1300.000000	104.387179
1299.000000	104.388919
1298.000000	104.387734
1297.000000	104.387620
1296.000000	104.390435
1295.000000	104.393251
1294.000000	104.395604
1293.000000	104.401296
1292.000000	104.410637
1291.000000	104.419014
1290.000000	104.425672
1289.000000	104.435704
1288.000000	104.450885
1287.000000	104.466454
1286.000000	104.479917
1285.000000	104.494515
1284.000000	104.511433
1283.000000	104.526893
1282.000000	104.539541
1281.000000	104.552597
1280.000000	104.566057
1279.000000	104.575369
1278.000000	104.580234
1277.000000	104.586286
1276.000000	104.595384
1275.000000	104.603177
1274.000000	104.608541
1273.000000	104.616450
1272.000000	104.628694
1271.000000	104.640960
1270.000000	104.651944
1269.000000	104.666157
1268.000000	104.684750
1267.000000	104.703037
1266.000000	104.720176
1265.000000	104.741633
1264.000000	104.768980
1263.000000	104.797095
1262.000000	104.824534
1261.000000	104.856507
1260.000000	104.894085
1259.000000	104.931040
1258.000000	104.965532
1257.000000	105.003899
1256.000000	105.049114
1255.000000	105.096016
1254.000000	105.141527
1253.000000	105.189650
1252.000000	105.242199
1251.000000	105.294668
1250.000000	105.345087
1249.000000	105.397399
1248.000000	105.452455
1247.000000	105.505435
1246.000000	105.555195
1245.000000	105.606071
1244.000000	105.657505
1243.000000	105.702446
1242.000000	105.739185
1241.000000	105.773988
1240.000000	105.808929
1239.000000	105.838552
1238.000000	105.861508
1237.000000	105.883854
1236.000000	105.907307
1235.000000	105.925236
1234.000000	105.934435
1233.000000	105.939476
1232.000000	105.942390
1231.000000	105.939589
1230.000000	105.931819
1229.000000	105.925619
1228.000000	105.921388
1227.000000	105.911585
1226.000000	105.893851
1225.000000	105.873976
1224.000000	105.853328
1223.000000	105.825691
1222.000000	105.789645
1221.000000	105.751861
1220.000000	105.714419
1219.000000	105.671552
1218.000000	105.622065
1217.000000	105.572530
1216.000000	105.524962
1215.000000	105.473631
1214.000000	105.417613
1213.000000	105.363681
1212.000000	105.313311
1211.000000	105.259614
1210.000000	105.200833
1209.000000	105.144106
1208.000000	105.092177
1207.000000	105.039194
1206.000000	104.983410
1205.000000	104.931176
1204.000000	104.884387
1203.000000	104.836835
1202.000000	104.787368
1201.000000	104.743680
1200.000000	104.708612
1199.000000	104.675177
1198.000000	104.639686
1197.000000	104.607741
1196.000000	104.582385
1195.000000	104.558900
1194.000000	104.535893
1193.000000	104.519024
1192.000000	104.508876
1191.000000	104.497071
1190.000000	104.479598
1189.000000	104.462379
1188.000000	104.449066
1187.000000	104.435573
1186.000000	104.420988
1185.000000	104.411479
1184.000000	104.408473
1183.000000	104.405162
1182.000000	104.399867
1181.000000	104.400587
1180.000000	104.411473
1179.000000	104.427014
1178.000000	104.444049
1177.000000	104.467122
1176.000000	104.496922
1175.000000	104.526336
1174.000000	104.552933
1173.000000	104.582250
1172.000000	104.614006
1171.000000	104.638575
1170.000000	104.652467
1169.000000	104.663612
1168.000000	104.676288
1167.000000	104.684685
1166.000000	104.686815
1165.000000	104.690146
1164.000000	104.696968
1163.000000	104.698678
1162.000000	104.690820
1161.000000	104.680185
1160.000000	104.670953
1159.000000	104.657851
1158.000000	104.639286
1157.000000	104.622678
1156.000000	104.610058
1155.000000	104.592628
1154.000000	104.566014
1153.000000	104.537388
1152.000000	104.511164
1151.000000	104.481843
1150.000000	104.447371
1149.000000	104.415370
1148.000000	104.389536
1147.000000	104.363331
1146.000000	104.333481
1145.000000	104.306071
1144.000000	104.283402
1143.000000	104.258625
1142.000000	104.229575
1141.000000	104.204096
1140.000000	104.185635
1139.000000	104.167551
1138.000000	104.147327
1137.000000	104.132374
1136.000000	104.125952
1135.000000	104.121229
1134.000000	104.115206
1133.000000	104.114358
1132.000000	104.120710
1131.000000	104.127002
1130.000000	104.131054
1129.000000	104.140515
1128.000000	104.157281
1127.000000	104.172065
1126.000000	104.180407
1125.000000	104.189248
1124.000000	104.202103
1123.000000	104.213102
1122.000000	104.221484
1121.000000	104.235849
1120.000000	104.257585
1119.000000	104.275641
1118.000000	104.284317
1117.000000	104.290710
1116.000000	104.298999
1115.000000	104.303923
1114.000000	104.305962
1113.000000	104.315645
1112.000000	104.335788
1111.000000	104.356036
1110.000000	104.371666
1109.000000	104.391036
1108.000000	104.418064
1107.000000	104.444829
1106.000000	104.468007
1105.000000	104.494917
1104.000000	104.526652
1103.000000	104.553825
1102.000000	104.575590
1101.000000	104.604339
1100.000000	104.644437
1099.000000	104.684843
1098.000000	104.719504
1097.000000	104.755783
1096.000000	104.796152
1095.000000	104.831772
1094.000000	104.862012
1093.000000	104.899833
1092.000000	104.949786
1091.000000	105.000430
1090.000000	105.046340
1089.000000	105.096812
1088.000000	105.155254
1087.000000	105.211149
1086.000000	105.260897
1085.000000	105.315085
1084.000000	105.376510
1083.000000	105.433126
1082.000000	105.481429
1081.000000	105.534845
1080.000000	105.599440
1079.000000	105.663901
1078.000000	105.722533
1077.000000	105.785361
1076.000000	105.855475
1075.000000	105.919865
1074.000000	105.973062
1073.000000	106.026585
1072.000000	106.084802
1071.000000	106.134607
1070.000000	106.169221
1069.000000	106.199110
1068.000000	106.229440
1067.000000	106.250438
1066.000000	106.260031
1065.000000	106.271155
1064.000000	106.286889
1063.000000	106.291594
1062.000000	106.277471
1061.000000	106.256443
1060.000000	106.236202
1059.000000	106.209036
1058.000000	106.173140
1057.000000	106.140700
1056.000000	106.115143
1055.000000	106.084537
1054.000000	106.046469
1053.000000	106.014794
1052.000000	105.991674
1051.000000	105.959517
1050.000000	105.911980
1049.000000	105.866379
1048.000000	105.832830
1047.000000	105.798396
1046.000000	105.753669
1045.000000	105.708141
1044.000000	105.668419
1043.000000	105.625711
1042.000000	105.576217
1041.000000	105.530939
1040.000000	105.495018
1039.000000	105.458458
1038.000000	105.416674
1037.000000	105.378483
1036.000000	105.345702
1035.000000	105.307101
1034.000000	105.260587
1033.000000	105.218514
1032.000000	105.183011
1031.000000	105.139480
1030.000000	105.082067
1029.000000	105.022511
1028.000000	104.965967
1027.000000	104.902825
1026.000000	104.832339
1025.000000	104.769634
1024.000000	104.719691
1023.000000	104.668488
1022.000000	104.609219
1021.000000	104.553858
1020.000000	104.509523
1019.000000	104.466704
1018.000000	104.420717
1017.000000	104.381674
1016.000000	104.353349
1015.000000	104.323965
1014.000000	104.287583
1013.000000	104.253069
1012.000000	104.223889
1011.000000	104.190251
1010.000000	104.149016
1009.000000	104.109578
1008.000000	104.073333
1007.000000	104.029875
1006.000000	103.980266
1005.000000	103.940851
1004.000000	103.916129
1003.000000	103.891075
1002.000000	103.857705
1001.000000	103.826568
1000.000000	103.803452
999.000000	103.778407
998.000000	103.746740
997.000000	103.718390
996.000000	103.696974
995.000000	103.671685
994.000000	103.639504
993.000000	103.613409
992.000000	103.599122
991.000000	103.584721
990.000000	103.563095
989.000000	103.543457
988.000000	103.531580
987.000000	103.519267
986.000000	103.502746
985.000000	103.490539
984.000000	103.484322
983.000000	103.472807
982.000000	103.453743
981.000000	103.441013
980.000000	103.440660
979.000000	103.441043
978.000000	103.435350
977.000000	103.433221
976.000000	103.440610
975.000000	103.449235
974.000000	103.454744
973.000000	103.464442
972.000000	103.477973
971.000000	103.481931
970.000000	103.473064
969.000000	103.465998
968.000000	103.468785
967.000000	103.471424
966.000000	103.467111
965.000000	103.462919
964.000000	103.460723
963.000000	103.449727
962.000000	103.428205
961.000000	103.410661
960.000000	103.403724
959.000000	103.395537
958.000000	103.378525
957.000000	103.361254
956.000000	103.348562
955.000000	103.332057
954.000000	103.309789
953.000000	103.293441
952.000000	103.285811
951.000000	103.273326
950.000000	103.250766
949.000000	103.232099
948.000000	103.226106
947.000000	103.223044
946.000000	103.215618
945.000000	103.211667
944.000000	103.215541
943.000000	103.218064
942.000000	103.215587
941.000000	103.218194
940.000000	103.228938
939.000000	103.235570
938.000000	103.232898
937.000000	103.232101
936.000000	103.238776
935.000000	103.242885
934.000000	103.240093
933.000000	103.240864
932.000000	103.248886
931.000000	103.252476
930.000000	103.247279
929.000000	103.245281
928.000000	103.251269
927.000000	103.252878
926.000000	103.243668
925.000000	103.234039
924.000000	103.229234
923.000000	103.219502
922.000000	103.201718
921.000000	103.188048
920.000000	103.183130
919.000000	103.175863
918.000000	103.163299
917.000000	103.158706
916.000000	103.165555
915.000000	103.167835
914.000000	103.157710
913.000000	103.148643
912.000000	103.149747
911.000000	103.150601
910.000000	103.143849
909.000000	103.138929
908.000000	103.141254
907.000000	103.140992
906.000000	103.134734
905.000000	103.134858
904.000000	103.145331
903.000000	103.151397
902.000000	103.144842
901.000000	103.136558
900.000000	103.132907
899.000000	103.124024
898.000000	103.106570
897.000000	103.093818
896.000000	103.091225
895.000000	103.086413
894.000000	103.074261
893.000000	103.067248
892.000000	103.069911
891.000000	103.068636
890.000000	103.058051
889.000000	103.051334
888.000000	103.053139
887.000000	103.049049
886.000000	103.034315
885.000000	103.025311
884.000000	103.029646
883.000000	103.032106
882.000000	103.024226
881.000000	103.019613
880.000000	103.025285
879.000000	103.025918
878.000000	103.012400
877.000000	102.998905
876.000000	102.995991
875.000000	102.994284
874.000000	102.988820
873.000000	102.991436
872.000000	103.004566
871.000000	103.011579
870.000000	103.006844
869.000000	103.006955
868.000000	103.018811
867.000000	103.026073
866.000000	103.020542
865.000000	103.017383
864.000000	103.025399
863.000000	103.031383
862.000000	103.028726
861.000000	103.032006
860.000000	103.048268
859.000000	103.062441
858.000000	103.066956
857.000000	103.076919
856.000000	103.100285
855.000000	103.121415
854.000000	103.130332
853.000000	103.140286
852.000000	103.160247
851.000000	103.177997
850.000000	103.186218
849.000000	103.197635
848.000000	103.218528
847.000000	103.235360
846.000000	103.242618
845.000000	103.255517
844.000000	103.279845
843.000000	103.298454
842.000000	103.302687
841.000000	103.308101
840.000000	103.324101
839.000000	103.337779
838.000000	103.343041
837.000000	103.354807
836.000000	103.378357
835.000000	103.395303
834.000000	103.397120
833.000000	103.401785
832.000000	103.420197
831.000000	103.436824
830.000000	103.441699
829.000000	103.450183
828.000000	103.471533
827.000000	103.489076
826.000000	103.492012
825.000000	103.495580
824.000000	103.509030
823.000000	103.516991
822.000000	103.512553
821.000000	103.514248
820.000000	103.531307
819.000000	103.546590
818.000000	103.550266
817.000000	103.556789
816.000000	103.572950
815.000000	103.582681
814.000000	103.580037
813.000000	103.583940
812.000000	103.603064
811.000000	103.618829
810.000000	103.620877
809.000000	103.626151
808.000000	103.644849
807.000000	103.660638
806.000000	103.663201
805.000000	103.667090
804.000000	103.679708
803.000000	103.684375
802.000000	103.674396
801.000000	103.670165
800.000000	103.682889
799.000000	103.694835
798.000000	103.694660
797.000000	103.698448
796.000000	103.716136
795.000000	103.731425
794.000000	103.735094
793.000000	103.744735
792.000000	103.771421
791.000000	103.798934
790.000000	103.814600
789.000000	103.829071
788.000000	103.849032
787.000000	103.862911
786.000000	103.869675
785.000000	103.888079
784.000000	103.921086
783.000000	103.945239
782.000000	103.951798
781.000000	103.963847
780.000000	103.995696
779.000000	104.030317
778.000000	104.054154
777.000000	104.079067
776.000000	104.111658
775.000000	104.136326
774.000000	104.148000
773.000000	104.166969
772.000000	104.202157
771.000000	104.233409
770.000000	104.248451
769.000000	104.262705
768.000000	104.284358
767.000000	104.295765
766.000000	104.289516
765.000000	104.287760
764.000000	104.305475
763.000000	104.328293
762.000000	104.345093
761.000000	104.367663
760.000000	104.399695
759.000000	104.422708
758.000000	104.432214
757.000000	104.452041
756.000000	104.493327
755.000000	104.535339
754.000000	104.565171
753.000000	104.599178
752.000000	104.645750
751.000000	104.685367
750.000000	104.708411
749.000000	104.734988
748.000000	104.776307
747.000000	104.813529
746.000000	104.835910
745.000000	104.862084
744.000000	104.902515
743.000000	104.938288
742.000000	104.958723
741.000000	104.982113
740.000000	105.018067
739.000000	105.047729
738.000000	105.063075
737.000000	105.086689
736.000000	105.129628
735.000000	105.168963
734.000000	105.190648
733.000000	105.216648
732.000000	105.264836
731.000000	105.319660
730.000000	105.366399
729.000000	105.417538
728.000000	105.481606
727.000000	105.543125
726.000000	105.596525
725.000000	105.662160
724.000000	105.746458
723.000000	105.824802
722.000000	105.885375
721.000000	105.949173
720.000000	106.024246
719.000000	106.082859
718.000000	106.110976
717.000000	106.136467
716.000000	106.182060
715.000000	106.232227
714.000000	106.272032
713.000000	106.317702
712.000000	106.380974
711.000000	106.443302
710.000000	106.493157
709.000000	106.550272
708.000000	106.625711
707.000000	106.697189
706.000000	106.750410
705.000000	106.806484
704.000000	106.881451
703.000000	106.957500
702.000000	107.019584
701.000000	107.080275
700.000000	107.143435
699.000000	107.184774
698.000000	107.194651
697.000000	107.199266
696.000000	107.214564
695.000000	107.220622
694.000000	107.206731
693.000000	107.196746
692.000000	107.203858
691.000000	107.205008
690.000000	107.188446
689.000000	107.181796
688.000000	107.202618
687.000000	107.225734
686.000000	107.230552
685.000000	107.234341
684.000000	107.248684
683.000000	107.252695
682.000000	107.238328
681.000000	107.234943
680.000000	107.258714
679.000000	107.283803
678.000000	107.292233
677.000000	107.304707
676.000000	107.333341
675.000000	107.353142
674.000000	107.350152
673.000000	107.351666
672.000000	107.377419
671.000000	107.407734
670.000000	107.421505
669.000000	107.429374
668.000000	107.441703
667.000000	107.439135
666.000000	107.423281
665.000000	107.425446
664.000000	107.447065
663.000000	107.456110
662.000000	107.442269
661.000000	107.437580
660.000000	107.458824
659.000000	107.477784
658.000000	107.478187
657.000000	107.485425
656.000000	107.511423
655.000000	107.526814
654.000000	107.518243
653.000000	107.517835
652.000000	107.543083
651.000000	107.563030
650.000000	107.556989
649.000000	107.552340
648.000000	107.570954
647.000000	107.592096
646.000000	107.601577
645.000000	107.621576
644.000000	107.660134
643.000000	107.685776
642.000000	107.684772
641.000000	107.688737
640.000000	107.715605
639.000000	107.739280
638.000000	107.747418
637.000000	107.769432
636.000000	107.815362
635.000000	107.847435
634.000000	107.847372
633.000000	107.851838
632.000000	107.885064
631.000000	107.918986
630.000000	107.933188
629.000000	107.951896
628.000000	107.986409
627.000000	108.005361
626.000000	107.999284
625.000000	108.010105
624.000000	108.056347
623.000000	108.094791
622.000000	108.096528
621.000000	108.092984
620.000000	108.107110
619.000000	108.107367
618.000000	108.074992
617.000000	108.048298
616.000000	108.051839
615.000000	108.047795
614.000000	108.007457
613.000000	107.964329
612.000000	107.951519
611.000000	107.951358
610.000000	107.948105
609.000000	107.964441
608.000000	108.002004
607.000000	108.014162
606.000000	107.984729
605.000000	107.965908
604.000000	107.990263
603.000000	108.018186
602.000000	108.016137
601.000000	108.010984
600.000000	108.020919
599.000000	108.011831
598.000000	107.972914
597.000000	107.956951
596.000000	107.993455
595.000000	108.035586
594.000000	108.042878
593.000000	108.043073
592.000000	108.063406
591.000000	108.075951
590.000000	108.066044
589.000000	108.075190
588.000000	108.122196
587.000000	108.158924
586.000000	108.155265
585.000000	108.152527
584.000000	108.181609
583.000000	108.208203
582.000000	108.210521
581.000000	108.227474
580.000000	108.274422
579.000000	108.297780
578.000000	108.270028
577.000000	108.245189
576.000000	108.264306
575.000000	108.292472
574.000000	108.302844
573.000000	108.328984
572.000000	108.377786
571.000000	108.389934
570.000000	108.347682
569.000000	108.326108
568.000000	108.372984
567.000000	108.433146
566.000000	108.456855
565.000000	108.478751
564.000000	108.524681
563.000000	108.545862
562.000000	108.517240
561.000000	108.498456
560.000000	108.526644
559.000000	108.549425
558.000000	108.531783
557.000000	108.525113
556.000000	108.561081
555.000000	108.585451
554.000000	108.567729
553.000000	108.566946
552.000000	108.615030
551.000000	108.647831
550.000000	108.626017
549.000000	108.612527
548.000000	108.651078
547.000000	108.683226
546.000000	108.666734
545.000000	108.659077
544.000000	108.700139
543.000000	108.729250
542.000000	108.703408
541.000000	108.681114
540.000000	108.708080
539.000000	108.732673
538.000000	108.717593
537.000000	108.719471
536.000000	108.773234
535.000000	108.812502
534.000000	108.792249
533.000000	108.775134
532.000000	108.811086
531.000000	108.848012
530.000000	108.843610
529.000000	108.848976
528.000000	108.898955
527.000000	108.935954
526.000000	108.926417
525.000000	108.935978
524.000000	108.995724
523.000000	109.028524
522.000000	108.992048
521.000000	108.957362
520.000000	108.971516
519.000000	108.973206
518.000000	108.932303
517.000000	108.932094
516.000000	109.010143
515.000000	109.070903
514.000000	109.055570
513.000000	109.039881
512.000000	109.076708
511.000000	109.093859
510.000000	109.044320
509.000000	109.008503
508.000000	109.041565
507.000000	109.065485
506.000000	109.025675
505.000000	109.003585
504.000000	109.056125
503.000000	109.096117
502.000000	109.050393
501.000000	108.995639
500.000000	109.005243
499.000000	109.019122
498.000000	108.987172
497.000000	108.980253
496.000000	109.046665
495.000000	109.102617
494.000000	109.082151
493.000000	109.056140
492.000000	109.083711
491.000000	109.092661
490.000000	109.033309
489.000000	108.991892
488.000000	109.027662
487.000000	109.056527
486.000000	109.013948
485.000000	108.977456
484.000000	109.004445
483.000000	109.011789
482.000000	108.952736
481.000000	108.928736
480.000000	108.993546
479.000000	109.036107
478.000000	108.984614
477.000000	108.941147
476.000000	108.973683
475.000000	108.975463
474.000000	108.877261
473.000000	108.806171
472.000000	108.858376
471.000000	108.916799
470.000000	108.894985
469.000000	108.908071
468.000000	109.024674
467.000000	109.101379
466.000000	109.036782
465.000000	108.959848
464.000000	108.982047
463.000000	109.002426
462.000000	108.937237
461.000000	108.899403
460.000000	108.966860
459.000000	109.002092
458.000000	108.906936
457.000000	108.837226
456.000000	108.910221
455.000000	108.991284
454.000000	108.978905
453.000000	108.975057
452.000000	109.034304
451.000000	109.016487
450.000000	108.861990
449.000000	108.743733
448.000000	108.764965
447.000000	108.776776
446.000000	108.671326
445.000000	108.588704
444.000000	108.627846
443.000000	108.633538
442.000000	108.495391
441.000000	108.372934
440.000000	108.383631
439.000000	108.376966
438.000000	108.233344
437.000000	108.100472
436.000000	108.116276
435.000000	108.147673
434.000000	108.064435
433.000000	107.991907
432.000000	108.036996
431.000000	108.057709
430.000000	107.949411
429.000000	107.878191
428.000000	107.972412
427.000000	108.071971
426.000000	108.027267
425.000000	107.962145
424.000000	107.975570
423.000000	107.898692
422.000000	107.664186
421.000000	107.545240
420.000000	107.737419
419.000000	107.938871
418.000000	107.829084
417.000000	107.659285
416.000000	107.661242
415.000000	107.630965
414.000000	107.449020
413.000000	107.370693
412.000000	107.550618
411.000000	107.683547
410.000000	107.541436
409.000000	107.401233
408.000000	107.477641
407.000000	107.495451
406.000000	107.279713
405.000000	107.226861
404.000000	107.516024
403.000000	107.687035
402.000000	107.294187
401.000000	106.889597
400.000000	106.882259
