##TITLE= Sample 125 By YargerLab Date Tuesday, June 04 2024
##JCAMP-DX= 4.24
##DATA TYPE= INFRARED SPECTRUM
##ORIGIN= Exported PE Spectrum Data File
##OWNER= Yarger Lab
##DATE= 24/06/05
##TIME= 11:24:52.00
##SPECTROMETER/DATA SYSTEM= PERKIN-ELMER Spectrum Two IR
##INSTRUMENT PARAMETERS=
  APODIZATION=Strong
  DETECTOR=LiTa03
##RESOLUTION= 4.000000
##DELTAX= -1.000000
##XUNITS= 1/CM
##YUNITS= TRANSMITTANCE
##XFACTOR= 1.00
##YFACTOR= 0.00000011920928955078
##FIRSTX= 4000.00
##LASTX= 400.00
##NPOINTS= 3601
##FIRSTY= 98.510569
##MAXY= 0.999782
##MINY= 0.745596
##XYDATA= (X++(Y..Y))
  4000.000000   8263665   8263667   8263801   8263949   8264089  
  3995.000000   8264133   8264047   8263837   8263592   8263432  
  3990.000000   8263403   8263473   8263599   8263760   8263926  
  3985.000000   8264055   8264142   8264211   8264250   8264211  
  3980.000000   8264072   8263886   8263769   8263807   8263998  
  3975.000000   8264256   8264498   8264691   8264813   8264872  
  3970.000000   8264890   8264878   8264855   8264846   8264841  
  3965.000000   8264824   8264794   8264763   8264770   8264820  
  3960.000000   8264851   8264860   8264916   8265045   8265206  
  3955.000000   8265343   8265427   8265409   8265213   8264801  
  3950.000000   8264148   8263322   8262595   8262281   8262483  
  3945.000000   8263140   8264146   8265192   8265846   8265909  
  3940.000000   8265555   8265172   8264976   8264762   8264180  
  3935.000000   8263208   8262369   8262210   8262766   8263562  
  3930.000000   8264086   8264338   8264635   8265171   8265904  
  3925.000000   8266453   8266262   8265173   8263628   8262334  
  3920.000000   8261626   8261311   8261295   8261788   8262797  
  3915.000000   8263838   8264539   8265037   8265557   8266087  
  3910.000000   8266443   8266587   8266620   8266408   8265449  
  3905.000000   8263312   8260094   8256814   8254886   8255049  
  3900.000000   8257102   8259792   8261686   8262426   8262590  
  3895.000000   8262967   8263863   8264830   8265214   8264853  
  3890.000000   8263870   8262127   8259813   8258346   8258888  
  3885.000000   8260570   8261436   8261004   8260541   8260981  
  3880.000000   8261858   8262274   8261916   8261213   8261169  
  3875.000000   8262337   8263789   8263604   8261258   8258678  
  3870.000000   8257989   8258843   8259180   8258112   8257281  
  3865.000000   8258270   8259953   8260405   8259519   8258623  
  3860.000000   8258882   8260933   8264619   8268779   8271393  
  3855.000000   8271596   8269682   8266506   8263547   8261530  
  3850.000000   8260109   8259486   8259613   8260072   8260577  
  3845.000000   8260920   8260825   8260282   8259313   8258127  
  3840.000000   8257330   8257223   8257689   8258511   8259385  
  3835.000000   8259936   8259942   8259744   8259900   8260397  
  3830.000000   8260797   8260987   8261240   8261897   8262646  
  3825.000000   8262354   8260379   8258111   8257747   8259271  
  3820.000000   8260386   8259899   8258364   8257856   8259814  
  3815.000000   8262993   8265116   8265649   8265829   8266468  
  3810.000000   8266992   8266443   8265068   8263897   8263047  
  3805.000000   8261707   8259729   8258569   8259682   8261926  
  3800.000000   8263068   8262643   8261953   8262403   8264157  
  3795.000000   8266220   8267727   8268771   8269826   8270964  
  3790.000000   8271795   8272077   8271955   8271663   8271256  
  3785.000000   8270739   8270086   8269189   8268176   8267615  
  3780.000000   8267966   8268845   8269582   8269856   8269916  
  3775.000000   8270131   8270383   8269999   8268706   8267305  
  3770.000000   8266432   8265779   8264988   8264311   8264276  
  3765.000000   8264959   8265544   8265184   8264120   8263551  
  3760.000000   8263780   8263707   8262844   8261901   8261200  
  3755.000000   8260145   8258340   8256373   8254646   8252625  
  3750.000000   8250783   8250674   8252100   8253068   8252994  
  3745.000000   8253468   8255320   8256736   8255938   8253605  
  3740.000000   8251409   8249825   8248605   8248408   8250062  
  3735.000000   8252442   8253812   8254612   8256381   8259219  
  3730.000000   8261712   8262699   8262678   8263033   8264064  
  3725.000000   8264850   8265202   8265833   8266927   8268053  
  3720.000000   8268867   8269192   8269189   8268931   8268126  
  3715.000000   8266468   8264358   8262901   8262471   8262529  
  3710.000000   8262773   8263367   8264554   8266214   8267913  
  3705.000000   8269249   8270268   8271301   8272159   8272413  
  3700.000000   8272053   8271285   8270493   8270137   8270044  
  3695.000000   8269490   8268254   8267099   8266689   8266461  
  3690.000000   8265148   8262758   8260982   8260733   8260953  
  3685.000000   8260814   8260397   8259900   8259184   8258209  
  3680.000000   8257196   8255612   8252323   8248167   8245518  
  3675.000000   8244657   8243782   8241622   8238953   8238384  
  3670.000000   8240403   8242474   8243058   8242810   8242472  
  3665.000000   8242346   8242325   8242134   8241663   8240848  
  3660.000000   8239592   8237763   8235476   8233147   8231029  
  3655.000000   8228840   8225825   8221633   8217064   8213441  
  3650.000000   8210643   8208176   8207169   8208518   8211039  
  3645.000000   8213250   8214882   8216379   8217891   8218851  
  3640.000000   8218849   8218170   8217200   8215890   8214144  
  3635.000000   8212485   8211412   8210456   8208578   8205736  
  3630.000000   8203442   8202333   8201373   8200218   8199097  
  3625.000000   8198287   8198055   8198242   8198385   8198447  
  3620.000000   8198308   8197163   8194606   8191358   8188241  
  3615.000000   8185999   8184795   8183909   8182556   8180723  
  3610.000000   8179255   8179125   8180146   8181175   8181479  
  3605.000000   8181170   8180743   8180386   8179764   8178697  
  3600.000000   8177285   8175679   8174116   8172820   8171802  
  3595.000000   8170871   8169584   8167622   8165102   8162340  
  3590.000000   8159950   8158696   8158569   8158379   8157414  
  3585.000000   8156095   8155101   8154642   8154492   8154293  
  3580.000000   8153852   8153163   8152253   8151150   8149853  
  3575.000000   8148360   8146644   8144629   8142257   8139436  
  3570.000000   8136207   8133247   8131381   8130478   8129665  
  3565.000000   8128632   8127665   8127172   8127185   8127337  
  3560.000000   8127245   8126735   8125823   8124621   8123321  
  3555.000000   8122099   8120978   8119744   8118127   8116041  
  3550.000000   8113584   8111090   8109077   8107872   8107303  
  3545.000000   8106957   8106606   8106250   8105893   8105472  
  3540.000000   8105004   8104488   8103853   8102970   8101794  
  3535.000000   8100418   8098931   8097442   8096065   8094842  
  3530.000000   8093585   8092062   8090268   8088422   8086798  
  3525.000000   8085647   8085103   8084954   8084718   8084083  
  3520.000000   8083194   8082301   8081381   8080260   8078956  
  3515.000000   8077699   8076588   8075521   8074463   8073470  
  3510.000000   8072412   8071021   8069267   8067467   8065991  
  3505.000000   8064996   8064344   8063713   8062832   8061698  
  3500.000000   8060584   8059726   8059085   8058422   8057575  
  3495.000000   8056581   8055561   8054616   8053805   8053121  
  3490.000000   8052415   8051559   8050590   8049608   8048661  
  3485.000000   8047794   8047107   8046596   8046009   8045141  
  3480.000000   8044133   8043311   8042786   8042434   8042117  
  3475.000000   8041725   8041131   8040285   8039347   8038560  
  3470.000000   8037981   8037481   8036981   8036500   8036043  
  3465.000000   8035596   8035198   8034856   8034462   8033960  
  3460.000000   8033504   8033276   8033217   8033076   8032737  
  3455.000000   8032302   8031850   8031371   8030865   8030410  
  3450.000000   8030057   8029775   8029484   8029063   8028462  
  3445.000000   8027826   8027452   8027472   8027643   8027606  
  3440.000000   8027290   8026916   8026635   8026368   8026050  
  3435.000000   8025768   8025582   8025444   8025305   8025209  
  3430.000000   8025204   8025272   8025400   8025578   8025722  
  3425.000000   8025728   8025636   8025617   8025731   8025844  
  3420.000000   8025834   8025762   8025738   8025783   8025877  
  3415.000000   8026026   8026229   8026454   8026702   8027004  
  3410.000000   8027347   8027683   8028026   8028401   8028732  
  3405.000000   8028897   8028907   8028902   8028960   8029082  
  3400.000000   8029312   8029715   8030197   8030568   8030816  
  3395.000000   8031143   8031681   8032329   8032954   8033591  
  3390.000000   8034348   8035243   8036192   8037070   8037752  
  3385.000000   8038183   8038442   8038677   8038965   8039325  
  3380.000000   8039799   8040411   8041080   8041689   8042250  
  3375.000000   8042852   8043479   8044016   8044411   8044694  
  3370.000000   8044896   8045061   8045355   8045967   8046887  
  3365.000000   8047910   8048850   8049672   8050407   8051097  
  3360.000000   8051816   8052618   8053445   8054198   8054882  
  3355.000000   8055586   8056355   8057168   8058033   8058970  
  3350.000000   8059915   8060781   8061601   8062457   8063310  
  3345.000000   8064032   8064600   8065123   8065693   8066327  
  3340.000000   8067057   8067940   8068967   8070074   8071246  
  3335.000000   8072488   8073708   8074782   8075720   8076646  
  3330.000000   8077618   8078569   8079458   8080302   8081107  
  3325.000000   8081884   8082731   8083768   8084956   8086115  
  3320.000000   8087135   8088057   8088933   8089756   8090532  
  3315.000000   8091298   8092063   8092820   8093616   8094515  
  3310.000000   8095497   8096497   8097501   8098503   8099405  
  3305.000000   8100133   8100795   8101578   8102497   8103414  
  3300.000000   8104270   8105126   8105981   8106741   8107409  
  3295.000000   8108110   8108912   8109737   8110525   8111322  
  3290.000000   8112170   8113044   8113929   8114850   8115770  
  3285.000000   8116601   8117329   8118036   8118782   8119539  
  3280.000000   8120289   8121036   8121723   8122273   8122721  
  3275.000000   8123214   8123842   8124568   8125337   8126128  
  3270.000000   8126911   8127656   8128394   8129160   8129915  
  3265.000000   8130628   8131380   8132261   8133190   8133976  
  3260.000000   8134560   8135048   8135531   8136040   8136640  
  3255.000000   8137400   8138262   8139079   8139785   8140420  
  3250.000000   8140988   8141457   8141890   8142425   8143102  
  3245.000000   8143872   8144737   8145752   8146865   8147902  
  3240.000000   8148762   8149480   8150110   8150667   8151204  
  3235.000000   8151789   8152424   8153078   8153791   8154632  
  3230.000000   8155565   8156457   8157253   8157991   8158699  
  3225.000000   8159375   8160038   8160716   8161377   8161990  
  3220.000000   8162594   8163211   8163767   8164219   8164687  
  3215.000000   8165317   8166073   8166814   8167515   8168260  
  3210.000000   8169064   8169880   8170747   8171751   8172842  
  3205.000000   8173857   8174711   8175434   8176048   8176552  
  3200.000000   8177048   8177695   8178537   8179469   8180384  
  3195.000000   8181225   8181928   8182472   8182978   8183619  
  3190.000000   8184434   8185324   8186212   8187093   8187952  
  3185.000000   8188761   8189560   8190388   8191177   8191829  
  3180.000000   8192384   8192982   8193694   8194471   8195283  
  3175.000000   8196129   8196968   8197739   8198460   8199202  
  3170.000000   8199986   8200790   8201616   8202444   8203172  
  3165.000000   8203719   8204163   8204650   8205192   8205700  
  3160.000000   8206173   8206708   8207344   8208002   8208617  
  3155.000000   8209195   8209753   8210295   8210852   8211448  
  3150.000000   8212032   8212542   8213012   8213515   8214038  
  3145.000000   8214520   8214992   8215525   8216091   8216617  
  3140.000000   8217129   8217715   8218326   8218811   8219117  
  3135.000000   8219346   8219590   8219864   8220185   8220599  
  3130.000000   8221091   8221587   8222047   8222480   8222880  
  3125.000000   8223225   8223544   8223868   8224160   8224377  
  3120.000000   8224594   8224938   8225393   8225789   8226009  
  3115.000000   8226122   8226279   8226580   8227039   8227604  
  3110.000000   8228150   8228546   8228749   8228817   8228812  
  3105.000000   8228763   8228718   8228749   8228879   8229045  
  3100.000000   8229188   8229313   8229437   8229550   8229622  
  3095.000000   8229630   8229541   8229346   8229097   8228865  
  3090.000000   8228657   8228443   8228236   8228066   8227881  
  3085.000000   8227579   8227133   8226602   8226030   8225415  
  3080.000000   8224790   8224238   8223827   8223594   8223561  
  3075.000000   8223709   8223929   8224132   8224356   8224686  
  3070.000000   8225075   8225369   8225514   8225635   8225865  
  3065.000000   8226227   8226691   8227231   8227790   8228269  
  3060.000000   8228613   8228838   8228974   8229042   8229086  
  3055.000000   8229116   8229000   8228553   8227736   8226695  
  3050.000000   8225581   8224436   8223267   8222105   8220964  
  3045.000000   8219833   8218710   8217577   8216362   8215005  
  3040.000000   8213596   8212288   8211129   8210060   8209053  
  3035.000000   8208131   8207269   8206416   8205619   8204981  
  3030.000000   8204498   8204043   8203525   8202934   8202271  
  3025.000000   8201529   8200762   8200040   8199322   8198473  
  3020.000000   8197435   8196280   8195098   8193902   8192659  
  3015.000000   8191295   8189696   8187807   8185741   8183680  
  3010.000000   8181690   8179716   8177714   8175659   8173453  
  3005.000000   8170979   8168265   8165454   8162626   8159759  
  3000.000000   8156843   8153898   8150878   8147688   8144309  
  2995.000000   8140782   8137086   8133190   8129191   8125244  
  2990.000000   8121347   8117338   8113053   8108268   8102534  
  2985.000000   8095403   8087013   8078303   8070473   8064208  
  2980.000000   8059374   8055245   8050938   8045750   8039315  
  2975.000000   8031528   8022457   8012375   8001803   7991258  
  2970.000000   7980862   7970302   7959218   7947544   7935454  
  2965.000000   7923171   7910901   7898873   7887314   7876420  
  2960.000000   7866396   7857456   7849780   7843515   7838844  
  2955.000000   7835963   7834899   7835377   7836840   7838563  
  2950.000000   7839772   7839791   7838181   7834736   7829393  
  2945.000000   7822175   7813214   7802682   7790673   7777220  
  2940.000000   7762393   7746312   7729033   7710577   7691058  
  2935.000000   7670678   7649584   7627795   7605348   7582414  
  2930.000000   7559176   7535636   7511552   7486520   7460105  
  2925.000000   7431954   7401903   7370039   7336868   7303626  
  2920.000000   7272806   7248668   7236920   7243289   7270917  
  2915.000000   7318222   7378737   7443535   7504819   7558125  
  2910.000000   7602446   7638750   7668718   7693985   7715811  
  2905.000000   7735058   7752339   7768148   7782795   7796541  
  2900.000000   7809503   7821862   7833764   7845253   7856358  
  2895.000000   7867128   7877578   7887659   7897357   7906750  
  2890.000000   7915906   7924788   7933287   7941298   7948723  
  2885.000000   7955508   7961697   7967368   7972460   7976720  
  2880.000000   7979880   7981827   7982607   7982350   7981252  
  2875.000000   7979572   7977611   7975755   7974452   7973968  
  2870.000000   7974080   7974089   7973233   7971013   7967143  
  2865.000000   7961383   7953570   7943721   7932008   7918647  
  2860.000000   7903869   7887834   7870383   7850818   7827885  
  2855.000000   7799905   7765165   7723267   7677303   7635528  
  2850.000000   7609951   7611096   7642067   7696416   7761616  
  2845.000000   7825398   7880457   7924946   7960355   7989074  
  2840.000000   8013136   8033982   8052490   8069172   8084381  
  2835.000000   8098388   8111325   8123243   8134197   8144275  
  2830.000000   8153517   8161924   8169537   8176426   8182612  
  2825.000000   8188079   8192872   8197101   8200848   8204173  
  2820.000000   8207169   8209936   8212491   8214812   8216941  
  2815.000000   8218951   8220848   8222599   8224239   8225835  
  2810.000000   8227358   8228728   8229960   8231152   8232329  
  2805.000000   8233430   8234463   8235524   8236656   8237795  
  2800.000000   8238878   8239891   8240812   8241619   8242372  
  2795.000000   8243175   8244048   8244937   8245833   8246762  
  2790.000000   8247667   8248438   8249077   8249690   8250311  
  2785.000000   8250879   8251398   8251976   8252651   8253319  
  2780.000000   8253892   8254401   8254910   8255421   8255922  
  2775.000000   8256432   8256937   8257376   8257721   8257995  
  2770.000000   8258199   8258333   8258481   8258756   8259141  
  2765.000000   8259503   8259780   8260044   8260345   8260633  
  2760.000000   8260878   8261137   8261439   8261722   8261941  
  2755.000000   8262127   8262300   8262418   8262481   8262580  
  2750.000000   8262786   8263058   8263319   8263537   8263695  
  2745.000000   8263766   8263769   8263777   8263834   8263919  
  2740.000000   8264017   8264147   8264295   8264403   8264447  
  2735.000000   8264465   8264487   8264519   8264595   8264755  
  2730.000000   8264964   8265150   8265328   8265577   8265904  
  2725.000000   8266211   8266440   8266623   8266794   8266960  
  2720.000000   8267180   8267548   8268042   8268500   8268806  
  2715.000000   8268998   8269174   8269365   8269545   8269676  
  2710.000000   8269719   8269688   8269707   8269912   8270274  
  2705.000000   8270614   8270818   8270941   8271084   8271271  
  2700.000000   8271481   8271693   8271863   8271946   8271994  
  2695.000000   8272120   8272344   8272566   8272703   8272762  
  2690.000000   8272753   8272645   8272464   8272314   8272280  
  2685.000000   8272360   8272542   8272824   8273137   8273350  
  2680.000000   8273410   8273394   8273381   8273368   8273335  
  2675.000000   8273290   8273225   8273109   8272971   8272878  
  2670.000000   8272814   8272654   8272309   8271795   8271139  
  2665.000000   8270333   8269427   8268564   8267860   8267326  
  2660.000000   8266934   8266684   8266544   8266435   8266324  
  2655.000000   8266260   8266284   8266378   8266534   8266764  
  2650.000000   8267011   8267163   8267204   8267259   8267426  
  2645.000000   8267670   8267916   8268150   8268383   8268599  
  2640.000000   8268801   8269024   8269260   8269450   8269600  
  2635.000000   8269802   8270116   8270529   8271036   8271645  
  2630.000000   8272275   8272777   8273109   8273353   8273567  
  2625.000000   8273732   8273902   8274207   8274651   8275059  
  2620.000000   8275303   8275468   8275706   8276067   8276538  
  2615.000000   8277111   8277719   8278227   8278575   8278847  
  2610.000000   8279136   8279442   8279729   8279980   8280168  
  2605.000000   8280303   8280524   8280986   8281635   8282237  
  2600.000000   8282665   8282986   8283265   8283483   8283696  
  2595.000000   8284059   8284593   8285125   8285526   8285860  
  2590.000000   8286197   8286479   8286656   8286783   8286902  
  2585.000000   8286984   8287054   8287206   8287438   8287629  
  2580.000000   8287757   8287939   8288216   8288497   8288769  
  2575.000000   8289148   8289625   8290001   8290175   8290298  
  2570.000000   8290516   8290785   8291030   8291301   8291621  
  2565.000000   8291874   8291985   8292055   8292181   8292293  
  2560.000000   8292315   8292320   8292434   8292699   8293122  
  2555.000000   8293692   8294277   8294681   8294871   8294994  
  2550.000000   8295097   8295042   8294766   8294444   8294271  
  2545.000000   8294286   8294483   8294879   8295364   8295699  
  2540.000000   8295777   8295720   8295643   8295526   8295419  
  2535.000000   8295532   8295966   8296557   8297095   8297522  
  2530.000000   8297796   8297809   8297578   8297332   8297255  
  2525.000000   8297298   8297399   8297645   8298069   8298482  
  2520.000000   8298670   8298640   8298518   8298365   8298237  
  2515.000000   8298231   8298349   8298460   8298530   8298728  
  2510.000000   8299149   8299610   8299884   8299979   8300028  
  2505.000000   8300073   8300110   8300216   8300440   8300690  
  2500.000000   8300887   8301106   8301404   8301646   8301675  
  2495.000000   8301569   8301545   8301679   8301872   8302043  
  2490.000000   8302195   8302334   8302432   8302495   8302567  
  2485.000000   8302678   8302818   8302936   8302960   8302884  
  2480.000000   8302807   8302835   8302955   8303098   8303277  
  2475.000000   8303540   8303820   8304019   8304191   8304449  
  2470.000000   8304711   8304741   8304478   8304120   8303852  
  2465.000000   8303690   8303608   8303611   8303605   8303424  
  2460.000000   8303064   8302713   8302477   8302278   8302069  
  2455.000000   8301965   8302043   8302223   8302438   8302740  
  2450.000000   8303138   8303515   8303803   8304081   8304422  
  2445.000000   8304794   8305188   8305678   8306255   8306757  
  2440.000000   8307062   8307205   8307283   8307372   8307581  
  2435.000000   8307968   8308394   8308630   8308670   8308725  
  2430.000000   8308879   8308994   8309030   8309179   8309572  
  2425.000000   8310043   8310359   8310493   8310572   8310694  
  2420.000000   8310894   8311144   8311302   8311235   8311042  
  2415.000000   8310987   8311140   8311293   8311312   8311354  
  2410.000000   8311638   8312161   8312758   8313290   8313675  
  2405.000000   8313882   8313984   8314105   8314270   8314416  
  2400.000000   8314563   8314777   8314978   8314988   8314829  
  2395.000000   8314752   8314904   8315167   8315387   8315562  
  2390.000000   8315725   8315866   8316039   8316383   8316916  
  2385.000000   8317525   8318178   8318967   8319860   8320618  
  2380.000000   8321081   8321327   8321440   8321346   8321014  
  2375.000000   8320644   8320463   8320495   8320684   8321062  
  2370.000000   8321577   8321966   8322020   8321839   8321667  
  2365.000000   8321559   8321387   8321117   8320818   8320540  
  2360.000000   8320398   8320460   8320582   8320514   8320190  
  2355.000000   8319981   8320385   8321387   8322290   8322331  
  2350.000000   8321140   8318749   8315754   8313360   8312595  
  2345.000000   8313231   8314049   8314377   8314264   8313753  
  2340.000000   8312998   8312408   8312300   8312532   8312807  
  2335.000000   8313050   8313374   8313767   8314124   8314179  
  2330.000000   8313203   8309905   8303687   8295863   8289245  
  2325.000000   8286219   8287158   8290595   8294586   8297892  
  2320.000000   8300238   8301822   8302933   8303752   8304490  
  2315.000000   8305335   8306354   8307377   8308213   8308791  
  2310.000000   8309138   8309247   8309174   8309047   8308929  
  2305.000000   8308711   8308330   8307897   8307522   8307092  
  2300.000000   8306430   8305491   8304334   8302956   8301423  
  2295.000000   8299947   8298698   8297569   8296322   8294876  
  2290.000000   8293332   8291860   8290746   8290407   8291042  
  2285.000000   8292307   8293578   8294526   8295247   8295926  
  2280.000000   8296613   8297305   8297986   8298578   8299024  
  2275.000000   8299390   8299774   8300173   8300598   8301184  
  2270.000000   8301989   8302817   8303420   8303771   8303902  
  2265.000000   8303667   8302888   8301635   8300093   8298328  
  2260.000000   8296454   8294861   8293907   8293369   8292515  
  2255.000000   8290716   8287779   8283781   8278880   8273304  
  2250.000000   8267251   8260725   8253496   8245358   8236118  
  2245.000000   8225609   8213879   8201399   8188936   8177321  
  2240.000000   8167469   8160628   8158248   8161368   8170155  
  2235.000000   8183909   8201241   8220174   8238680   8255378  
  2230.000000   8269671   8281416   8290732   8297943   8303277  
  2225.000000   8306840   8309028   8310664   8312325   8313792  
  2220.000000   8314602   8314900   8315327   8316166   8317085  
  2215.000000   8317684   8317923   8318002   8318112   8318307  
  2210.000000   8318444   8318352   8318168   8318293   8318811  
  2205.000000   8319224   8319075   8318551   8318164   8318102  
  2200.000000   8318265   8318641   8319188   8319575   8319496  
  2195.000000   8319102   8318690   8318155   8317245   8316194  
  2190.000000   8315578   8315561   8315783   8316084   8316964  
  2185.000000   8319154   8322836   8327142   8330358   8331138  
  2180.000000   8329986   8329098   8330202   8332713   8334463  
  2175.000000   8334034   8331706   8328406   8324601   8320380  
  2170.000000   8316036   8312295   8310006   8309392   8309335  
  2165.000000   8307992   8305216   8304548   8311627   8329182  
  2160.000000   8352964   8373933   8385299   8386778   8382707  
  2155.000000   8377583   8373407   8370003   8366822   8364039  
  2150.000000   8362155   8361231   8360961   8361126   8361556  
  2145.000000   8361901   8361918   8361794   8361782   8361732  
  2140.000000   8361400   8361167   8362015   8364595   8368371  
  2135.000000   8371729   8373007   8371625   8368369   8364549  
  2130.000000   8360975   8357783   8354964   8352611   8350647  
  2125.000000   8348736   8346655   8344502   8342397   8340260  
  2120.000000   8338034   8335866   8333864   8331972   8330273  
  2115.000000   8329148   8328829   8329027   8329299   8329607  
  2110.000000   8330158   8330881   8331459   8331783   8331984  
  2105.000000   8332085   8331970   8331671   8331376   8331233  
  2100.000000   8331456   8332504   8334711   8337628   8340089  
  2095.000000   8341128   8340658   8339227   8337412   8335561  
  2090.000000   8333874   8332509   8331564   8330989   8330558  
  2085.000000   8329996   8329259   8328621   8328350   8328386  
  2080.000000   8328466   8328487   8328565   8328773   8329040  
  2075.000000   8329292   8329484   8329546   8329542   8329832  
  2070.000000   8330801   8332348   8333824   8334574   8334476  
  2065.000000   8333982   8333732   8334080   8334866   8335482  
  2060.000000   8335310   8334321   8333199   8332624   8332100  
  2055.000000   8329734   8323949   8315893   8309607   8309008  
  2050.000000   8314410   8322212   8328461   8332023   8333826  
  2045.000000   8334589   8334458   8333806   8333133   8332450  
  2040.000000   8331585   8330958   8331350   8333014   8335611  
  2035.000000   8338833   8342427   8345783   8348238   8349677  
  2030.000000   8350287   8350107   8349416   8349096   8349842  
  2025.000000   8351282   8352500   8353115   8353246   8352990  
  2020.000000   8352660   8352990   8354201   8355212   8354762  
  2015.000000   8353272   8352359   8352559   8352797   8352374  
  2010.000000   8352453   8354870   8359820   8365349   8368976  
  2005.000000   8369483   8367446   8364406   8361469   8358674  
  2000.000000   8355723   8352958   8351080   8350139   8349606  
  1995.000000   8349219   8348962   8348406   8346907   8344665  
  1990.000000   8342819   8341986   8341486   8340260   8337910  
  1985.000000   8334604   8330545   8326170   8322880   8323062  
  1980.000000   8328782   8339847   8352911   8363395   8369142  
  1975.000000   8371394   8372235   8372520   8372327   8371917  
  1970.000000   8371514   8371018   8370497   8370286   8370399  
  1965.000000   8370503   8370844   8372456   8375737   8379533  
  1960.000000   8382207   8383089   8382427   8380733   8378673  
  1955.000000   8376900   8375580   8374491   8373661   8373396  
  1950.000000   8373692   8374086   8374201   8374096   8373901  
  1945.000000   8373582   8373239   8373061   8372916   8372445  
  1940.000000   8371731   8371456   8371973   8372757   8373177  
  1935.000000   8373193   8372973   8372474   8371603   8370471  
  1930.000000   8369339   8368312   8367321   8366443   8365855  
  1925.000000   8365393   8364423   8362288   8359199   8356140  
  1920.000000   8353966   8353016   8353003   8353061   8352463  
  1915.000000   8351477   8351034   8351506   8352300   8352719  
  1910.000000   8352703   8352417   8351792   8351025   8350720  
  1905.000000   8350963   8350922   8350052   8349058   8348779  
  1900.000000   8349031   8349234   8349340   8349546   8349554  
  1895.000000   8348978   8348299   8348257   8348777   8349324  
  1890.000000   8349626   8349583   8348967   8347927   8347252  
  1885.000000   8347423   8347819   8347694   8347335   8347339  
  1880.000000   8347563   8347583   8347466   8347442   8347257  
  1875.000000   8346501   8345459   8344782   8344547   8344442  
  1870.000000   8344608   8345287   8345705   8344937   8343561  
  1865.000000   8342673   8342405   8342223   8342051   8342292  
  1860.000000   8342828   8343001   8342741   8342537   8342473  
  1855.000000   8342317   8342170   8342194   8342111   8341714  
  1850.000000   8341378   8341399   8341377   8340760   8339781  
  1845.000000   8339083   8338637   8338029   8337459   8337118  
  1840.000000   8337104   8337453   8337859   8337869   8337379  
  1835.000000   8336741   8336367   8336475   8337343   8338751  
  1830.000000   8339306   8338075   8336010   8334453   8333786  
  1825.000000   8333711   8333728   8333465   8333018   8333048  
  1820.000000   8334157   8335853   8337108   8337529   8337171  
  1815.000000   8335941   8334053   8332439   8331674   8330785  
  1810.000000   8328893   8326990   8325906   8325001   8323770  
  1805.000000   8322716   8322103   8321158   8319079   8316304  
  1800.000000   8313625   8310881   8308023   8305510   8303045  
  1795.000000   8299551   8294706   8289538   8284934   8280225  
  1790.000000   8275129   8270198   8265399   8260021   8253758  
  1785.000000   8247271   8241234   8235475   8229341   8222567  
  1780.000000   8215534   8208898   8203042   8197836   8192922  
  1775.000000   8188114   8183499   8179052   8175069   8171827  
  1770.000000   8169064   8166896   8166467   8167918   8169875  
  1765.000000   8171489   8173390   8176301   8179214   8180959  
  1760.000000   8182186   8183677   8185316   8186633   8187720  
  1755.000000   8188804   8189063   8188054   8187254   8188562  
  1750.000000   8191331   8193057   8193294   8193593   8194563  
  1745.000000   8195553   8196440   8197418   8197721   8196627  
  1740.000000   8194804   8193191   8190856   8186493   8180198  
  1735.000000   8173389   8167401   8162782   8159455   8156446  
  1730.000000   8153421   8150138   8146925   8144598   8143423  
  1725.000000   8143015   8143226   8144231   8145911   8147807  
  1720.000000   8149869   8152239   8154205   8156824   8160774  
  1715.000000   8164417   8167627   8171446   8175376   8178530  
  1710.000000   8180883   8183110   8185660   8188179   8190467  
  1705.000000   8192513   8193459   8191716   8187850   8184999  
  1700.000000   8185318   8184805   8181972   8179671   8180044  
  1695.000000   8181044   8180974   8180144   8178854   8177296  
  1690.000000   8175107   8171929   8167980   8163245   8158293  
  1685.000000   8153189   8147374   8141692   8137589   8132709  
  1680.000000   8126403   8119480   8112467   8104615   8095296  
  1675.000000   8085690   8077179   8069432   8061737   8054563  
  1670.000000   8048500   8043038   8037953   8034219   8031714  
  1665.000000   8029611   8027458   8025242   8023186   8021193  
  1660.000000   8019003   8017473   8017142   8017181   8015891  
  1655.000000   8014515   8014117   8013499   8011663   8011378  
  1650.000000   8009651   8007126   8003608   7998856   7993872  
  1645.000000   7990861   7989174   7987300   7985484   7984803  
  1640.000000   7985385   7986679   7988906   7993102   7999044  
  1635.000000   8006078   8013259   8019149   8022803   8025235  
  1630.000000   8027995   8031380   8034077   8035609   8036749  
  1625.000000   8037900   8038450   8038262   8038170   8037710  
  1620.000000   8035641   8031935   8027401   8021650   8013876  
  1615.000000   8005932   7999333   7992817   7985216   7977461  
  1610.000000   7971559   7967626   7964462   7962620   7963482  
  1605.000000   7966579   7970574   7975680   7982667   7990752  
  1600.000000   7998711   8006916   8016203   8025923   8034705  
  1595.000000   8042427   8050018   8057329   8063346   8068196  
  1590.000000   8072946   8077490   8080787   8083077   8085566  
  1585.000000   8088131   8089697   8090499   8091939   8093773  
  1580.000000   8094545   8094072   8093664   8093161   8091216  
  1575.000000   8089648   8090334   8091411   8091579   8091377  
  1570.000000   8091382   8090566   8088629   8087434   8087685  
  1565.000000   8088498   8088826   8088827   8089083   8088693  
  1560.000000   8085866   8079809   8077918   8080627   8081827  
  1555.000000   8081718   8082181   8083647   8085499   8087512  
  1550.000000   8089627   8091230   8092168   8093251   8095611  
  1545.000000   8099415   8103158   8105103   8105408   8105819  
  1540.000000   8107273   8110448   8115706   8120428   8123375  
  1535.000000   8125831   8128957   8132553   8135518   8137381  
  1530.000000   8138786   8140979   8143935   8146657   8148574  
  1525.000000   8150328   8152220   8153888   8155269   8157309  
  1520.000000   8160483   8163810   8166005   8167102   8167742  
  1515.000000   8168327   8168615   8169245   8171555   8174800  
  1510.000000   8176574   8176191   8176014   8176016   8176054  
  1505.000000   8178758   8182775   8185311   8186073   8185552  
  1500.000000   8184702   8183383   8180336   8176314   8174613  
  1495.000000   8175403   8175808   8174393   8172324   8170823  
  1490.000000   8168914   8165924   8162572   8158378   8153411  
  1485.000000   8148250   8143055   8137588   8131036   8123058  
  1480.000000   8114227   8104339   8091453   8073060   8048063  
  1475.000000   8017033   7983166   7953391   7935276   7926510  
  1470.000000   7918054   7905127   7888255   7867543   7840467  
  1465.000000   7807440   7776725   7756650   7746459   7740655  
  1460.000000   7733638   7719195   7688373   7640541   7594954  
  1455.000000   7564866   7544168   7527041   7513692   7505036  
  1450.000000   7499363   7495229   7493377   7493603   7493639  
  1445.000000   7492662   7491864   7491794   7491351   7490029  
  1440.000000   7489095   7489574   7491114   7494186   7501475  
  1435.000000   7513573   7528227   7545633   7568104   7596173  
  1430.000000   7626971   7657035   7684476   7708167   7727454  
  1425.000000   7742066   7752090   7758034   7760657   7761221  
  1420.000000   7761636   7762843   7763304   7762803   7762586  
  1415.000000   7762568   7761554   7758842   7755200   7751778  
  1410.000000   7748660   7745940   7744628   7745317   7747485  
  1405.000000   7750339   7754073   7759004   7764463   7770154  
  1400.000000   7776727   7784404   7792241   7799679   7807301  
  1395.000000   7815454   7823042   7828994   7833885   7838337  
  1390.000000   7842174   7844918   7846158   7845656   7843579  
  1385.000000   7840314   7835924   7830216   7823289   7815725  
  1380.000000   7808096   7801072   7795643   7792372   7790783  
  1375.000000   7789828   7788662   7786948   7784649   7781915  
  1370.000000   7779101   7776018   7772209   7767808   7763646  
  1365.000000   7760380   7757711   7754780   7751538   7748762  
  1360.000000   7746655   7744840   7743389   7742568   7742135  
  1355.000000   7741565   7740863   7740577   7740829   7741245  
  1350.000000   7742030   7743479   7745411   7747593   7750361  
  1345.000000   7754108   7758617   7763459   7768825   7775057  
  1340.000000   7781687   7787832   7793296   7798515   7803665  
  1335.000000   7808609   7813508   7818638   7823709   7828116  
  1330.000000   7831772   7834961   7837630   7839578   7841093  
  1325.000000   7842554   7843928   7844994   7845787   7846417  
  1320.000000   7846763   7846731   7846656   7847013   7847823  
  1315.000000   7848798   7849866   7851128   7852492   7853818  
  1310.000000   7855300   7857220   7859411   7861505   7863672  
  1305.000000   7866297   7869319   7872304   7875153   7878167  
  1300.000000   7881449   7884753   7887958   7891197   7894425  
  1295.000000   7897438   7900284   7903177   7905994   7908375  
  1290.000000   7910341   7912288   7914305   7916055   7917385  
  1285.000000   7918495   7919432   7919929   7919863   7919337  
  1280.000000   7918268   7916503   7914265   7911991   7909640  
  1275.000000   7906783   7903330   7899595   7895699   7891540  
  1270.000000   7887337   7883591   7880498   7877903   7875785  
  1265.000000   7874299   7873305   7872388   7871390   7870413  
  1260.000000   7869272   7867569   7865230   7862520   7859477  
  1255.000000   7855873   7851753   7847483   7843275   7839145  
  1250.000000   7835309   7832114   7829586   7827489   7825736  
  1245.000000   7824367   7823177   7821844   7820436   7819282  
  1240.000000   7818371   7817355   7816169   7815111   7814256  
  1235.000000   7813322   7812169   7810911   7809511   7807768  
  1230.000000   7805749   7803768   7801850   7799712   7797331  
  1225.000000   7795036   7792977   7791026   7789215   7787732  
  1220.000000   7786457   7785048   7783545   7782331   7781457  
  1215.000000   7780543   7779396   7778134   7776671   7774681  
  1210.000000   7772188   7769614   7767073   7764189   7760740  
  1205.000000   7756903   7752790   7748356   7743834   7739637  
  1200.000000   7735693   7731518   7727012   7722624   7718633  
  1195.000000   7714914   7711546   7708952   7707321   7706428  
  1190.000000   7706152   7706543   7707271   7707677   7707546  
  1185.000000   7707219   7706829   7706103   7705067   7704254  
  1180.000000   7704010   7704355   7705646   7708673   7713798  
  1175.000000   7720661   7728964   7738707   7749529   7760556  
  1170.000000   7771267   7781886   7792631   7803341   7814025  
  1165.000000   7824988   7836095   7846727   7856742   7866653  
  1160.000000   7876628   7886172   7895066   7903695   7912170  
  1155.000000   7920075   7927307   7934241   7940784   7946234  
  1150.000000   7950364   7953562   7955737   7956127   7954418  
  1145.000000   7951056   7946057   7938760   7929031   7917570  
  1140.000000   7904870   7890853   7875875   7860961   7846753  
  1135.000000   7833239   7820737   7810104   7801674   7795091  
  1130.000000   7790313   7787844   7787615   7788625   7790093  
  1125.000000   7791899   7793715   7794790   7794977   7794936  
  1120.000000   7794936   7794471   7793323   7791927   7790359  
  1115.000000   7788159   7785485   7783279   7781913   7780786  
  1110.000000   7779555   7778581   7777896   7776827   7775132  
  1105.000000   7773341   7771574   7769251   7766350   7763653  
  1100.000000   7761604   7759477   7756925   7754499   7752453  
  1095.000000   7750234   7747663   7745365   7743597   7741823  
  1090.000000   7739903   7738421   7737448   7736241   7734631  
  1085.000000   7733433   7732998   7732742   7732493   7732979  
  1080.000000   7734434   7736099   7737628   7739658   7742433  
  1075.000000   7745219   7747611   7750104   7752843   7755173  
  1070.000000   7756890   7758584   7760265   7761052   7760689  
  1065.000000   7759888   7758805   7756637   7753223   7749488  
  1060.000000   7745798   7741477   7736395   7731519   7727331  
  1055.000000   7723247   7719091   7715658   7713217   7710998  
  1050.000000   7708794   7707507   7707520   7708163   7709269  
  1045.000000   7711651   7715535   7720067   7724870   7730475  
  1040.000000   7736866   7743129   7749152   7756040   7764256  
  1035.000000   7772928   7781508   7790492   7799905   7808743  
  1030.000000   7816523   7823832   7830747   7836362   7840464  
  1025.000000   7843962   7847055   7848715   7848471   7847083  
  1020.000000   7844688   7839990   7832039   7821175   7807970  
  1015.000000   7792935   7777914   7765903   7758713   7755974  
  1010.000000   7756715   7760295   7765322   7769553   7771623  
  1005.000000   7771600   7769400   7764360   7756771   7748184  
  1000.000000   7739560   7730637   7721604   7713674   7707425  
   995.000000   7702109   7697094   7692377   7687094   7679102  
   990.000000   7666851   7650045   7628200   7599968   7564557  
   985.000000   7522430   7473681   7417595   7354054   7284020  
   980.000000   7208303   7126881   7040199   6949681   6856674  
   975.000000   6762206   6668000   6576806   6491324   6414026  
   970.000000   6347860   6296735   6264575   6254516   6269632  
   965.000000   6312322   6383168   6479720   6596844   6728031  
   960.000000   6865347   7000413   7126639   7240548   7340454  
   955.000000   7425532   7496669   7556408   7606963   7648983  
   950.000000   7683342   7712006   7736417   7756766   7773330  
   945.000000   7787261   7799092   7808190   7814520   7819178  
   940.000000   7822629   7824002   7822896   7820246   7816640  
   935.000000   7811474   7804491   7796427   7787535   7777026  
   930.000000   7764725   7751648   7738292   7724079   7709034  
   925.000000   7694370   7680729   7667596   7655010   7644212  
   920.000000   7635943   7629758   7625708   7624879   7627679  
   915.000000   7633266   7641335   7652803   7667912   7685477  
   910.000000   7704817   7726514   7750517   7775194   7799263  
   905.000000   7822849   7845781   7866780   7885262   7902123  
   900.000000   7917768   7931299   7942483   7952473   7961720  
   895.000000   7969148   7974373   7978673   7982876   7986355  
   890.000000   7989017   7992172   7996404   8000584   8004035  
   885.000000   8007590   8011618   8015061   8017502   8020040  
   880.000000   8023142   8025756   8027552   8029781   8032894  
   875.000000   8035660   8037615   8040068   8043543   8046684  
   870.000000   8048669   8050411   8052310   8053274   8053022  
   865.000000   8052979   8053806   8054316   8053915   8053765  
   860.000000   8054445   8054729   8053887   8052895   8052295  
   855.000000   8051079   8048839   8046765   8045355   8043391  
   850.000000   8040262   8037093   8034429   8031143   8026715  
   845.000000   8022301   8018409   8013847   8008053   8002172  
   840.000000   7996733   7990628   7983519   7976859   7971399  
   835.000000   7966035   7960355   7955839   7953339   7951691  
   830.000000   7950170   7949885   7951306   7952859   7953554  
   825.000000   7954686   7957394   7960946   7964806   7969786  
   820.000000   7975768   7980908   7984301   7987013   7989468  
   815.000000   7990389   7989420   7988203   7987637   7986547  
   810.000000   7984314   7982236   7981006   7979359   7976587  
   805.000000   7973930   7972141   7970159   7967444   7965142  
   800.000000   7963656   7961580   7958299   7955138   7952731  
   795.000000   7949846   7945983   7942533   7940180   7937763  
   790.000000   7934847   7932759   7931932   7930860   7928881  
   785.000000   7927334   7926763   7925661   7923205   7920649  
   780.000000   7918756   7916430   7913146   7910184   7908132  
   775.000000   7905650   7901938   7898020   7894460   7890349  
   770.000000   7885685   7882117   7880141   7878107   7875184  
   765.000000   7872657   7871104   7869065   7865816   7862779  
   760.000000   7860754   7858468   7855187   7852153   7850067  
   755.000000   7847836   7845070   7843107   7842235   7840638  
   750.000000   7837529   7834551   7832711   7830616   7827288  
   745.000000   7823938   7821392   7818357   7813914   7809130  
   740.000000   7804613   7799031   7791659   7783876   7776456  
   735.000000   7767665   7755582   7740389   7723573   7707439  
   730.000000   7696103   7693529   7698684   7705373   7708328  
   725.000000   7706847   7701520   7691252   7676347   7661771  
   720.000000   7654306   7657174   7668755   7684494   7698594  
   715.000000   7706545   7708294   7707374   7706083   7703655  
   710.000000   7699488   7694899   7690408   7684517   7676564  
   705.000000   7668100   7659911   7650623   7639667   7628665  
   700.000000   7618314   7606968   7593952   7581168   7569827  
   695.000000   7558532   7546570   7535852   7527719   7520897  
   690.000000   7514645   7510735   7510102   7510719   7511212  
   685.000000   7513209   7517646   7522488   7526171   7529891  
   680.000000   7534276   7537449   7538552   7539576   7541684  
   675.000000   7543268   7543772   7545529   7549687   7554087  
   670.000000   7557457   7562311   7569659   7575684   7579300  
   665.000000   7582407   7585904   7588313   7588853   7589411  
   660.000000   7591071   7592111   7591595   7591416   7592682  
   655.000000   7593751   7593783   7594685   7597407   7599976  
   650.000000   7601331   7603415   7607300   7611002   7613318  
   645.000000   7615935   7619605   7622113   7622443   7622694  
   640.000000   7623831   7623535   7620685   7617917   7617286  
   635.000000   7617351   7616773   7616905   7618191   7618107  
   630.000000   7615311   7612126   7610261   7608157   7604732  
   625.000000   7601820   7600122   7597232   7592202   7587680  
   620.000000   7585307   7582912   7578946   7575208   7572553  
   615.000000   7568394   7561558   7554868   7550133   7545141  
   610.000000   7538698   7533952   7533265   7534605   7535942  
   605.000000   7538960   7544637   7550131   7553514   7556929  
   600.000000   7561450   7564131   7563187   7561174   7559895  
   595.000000   7557030   7551167   7545013   7540447   7535059  
   590.000000   7527208   7519330   7513076   7506371   7498335  
   585.000000   7492254   7490107   7489404   7488447   7489923  
   580.000000   7495354   7501669   7506404   7511526   7518410  
   575.000000   7524006   7526306   7528111   7531600   7534315  
   570.000000   7534344   7534154   7535603   7536036   7533566  
   565.000000   7530916   7530076   7528825   7525790   7523687  
   560.000000   7523821   7522973   7519470   7516846   7517301  
   555.000000   7517585   7515341   7513466   7513948   7513907  
   550.000000   7511808   7511176   7513732   7515545   7514354  
   545.000000   7513971   7516962   7519959   7520707   7522533  
   540.000000   7527367   7531245   7531649   7532479   7536627  
   535.000000   7540740   7541903   7543388   7547472   7550401  
   530.000000   7549725   7549351   7551854   7553854   7553571  
   525.000000   7555452   7561520   7566509   7566938   7566737  
   520.000000   7569074   7570475   7568803   7568712   7572604  
   515.000000   7575097   7573415   7573175   7577899   7582314  
   510.000000   7582236   7582217   7585619   7587751   7585553  
   505.000000   7584305   7587689   7590931   7590691   7592193  
   500.000000   7598127   7602498   7601753   7601355   7604851  
   495.000000   7606663   7603509   7601535   7604584   7607087  
   490.000000   7605500   7605600   7610140   7612213   7608395  
   485.000000   7606116   7609657   7611456   7606723   7602194  
   480.000000   7602391   7601518   7595909   7592464   7595212  
   475.000000   7596768   7591787   7587077   7587616   7586897  
   470.000000   7581525   7579648   7585297   7589410   7585926  
   465.000000   7583434   7588382   7592986   7591001   7589293  
   460.000000   7592857   7593334   7584896   7578513   7582161  
   455.000000   7585961   7582898   7581015   7585629   7587598  
   450.000000   7580669   7574142   7574469   7572697   7562630  
   445.000000   7554956   7557177   7557965   7548007   7537908  
   440.000000   7537268   7536881   7528077   7518997   7517148  
   435.000000   7513050   7500066   7489879   7490116   7488031  
   430.000000   7474306   7462081   7461747   7461113   7449537  
   425.000000   7440106   7444591   7448842   7438898   7427578  
   420.000000   7428798   7426985   7409248   7400426   7412859  
   415.000000   7425768   7424306   7422523   7433132   7439138  
   410.000000   7427870   7420513   7433584   7446137   7439206  
   405.000000   7433335   7446828   7456754   7442714   7431598  
   400.000000   7450130  
##END= 
