Created as New Dataset,Sample 761 By YargerLab Date Thursday, July 03 2025
cm-1,A
4000.00,0.0016
3999.00,0.0016
3998.00,0.0016
3997.00,0.0016
3996.00,0.0016
3995.00,0.0016
3994.00,0.0016
3993.00,0.0016
3992.00,0.0016
3991.00,0.0016
3990.00,0.0016
3989.00,0.0016
3988.00,0.0016
3987.00,0.0016
3986.00,0.0016
3985.00,0.0016
3984.00,0.0016
3983.00,0.0016
3982.00,0.0016
3981.00,0.0016
3980.00,0.0016
3979.00,0.0016
3978.00,0.0016
3977.00,0.0016
3976.00,0.0016
3975.00,0.0016
3974.00,0.0016
3973.00,0.0016
3972.00,0.0016
3971.00,0.0016
3970.00,0.0015
3969.00,0.0015
3968.00,0.0015
3967.00,0.0015
3966.00,0.0015
3965.00,0.0016
3964.00,0.0016
3963.00,0.0016
3962.00,0.0016
3961.00,0.0016
3960.00,0.0016
3959.00,0.0016
3958.00,0.0016
3957.00,0.0016
3956.00,0.0016
3955.00,0.0016
3954.00,0.0016
3953.00,0.0016
3952.00,0.0016
3951.00,0.0016
3950.00,0.0017
3949.00,0.0017
3948.00,0.0017
3947.00,0.0017
3946.00,0.0017
3945.00,0.0017
3944.00,0.0016
3943.00,0.0015
3942.00,0.0015
3941.00,0.0016
3940.00,0.0016
3939.00,0.0016
3938.00,0.0016
3937.00,0.0017
3936.00,0.0017
3935.00,0.0017
3934.00,0.0018
3933.00,0.0018
3932.00,0.0017
3931.00,0.0017
3930.00,0.0016
3929.00,0.0016
3928.00,0.0016
3927.00,0.0016
3926.00,0.0016
3925.00,0.0016
3924.00,0.0016
3923.00,0.0017
3922.00,0.0018
3921.00,0.0018
3920.00,0.0019
3919.00,0.0019
3918.00,0.0019
3917.00,0.0019
3916.00,0.0018
3915.00,0.0017
3914.00,0.0017
3913.00,0.0017
3912.00,0.0017
3911.00,0.0016
3910.00,0.0016
3909.00,0.0016
3908.00,0.0016
3907.00,0.0016
3906.00,0.0017
3905.00,0.0018
3904.00,0.0020
3903.00,0.0021
3902.00,0.0022
3901.00,0.0022
3900.00,0.0021
3899.00,0.0020
3898.00,0.0019
3897.00,0.0018
3896.00,0.0018
3895.00,0.0018
3894.00,0.0018
3893.00,0.0018
3892.00,0.0018
3891.00,0.0018
3890.00,0.0019
3889.00,0.0019
3888.00,0.0020
3887.00,0.0021
3886.00,0.0020
3885.00,0.0019
3884.00,0.0018
3883.00,0.0018
3882.00,0.0018
3881.00,0.0018
3880.00,0.0018
3879.00,0.0018
3878.00,0.0019
3877.00,0.0019
3876.00,0.0018
3875.00,0.0018
3874.00,0.0017
3873.00,0.0017
3872.00,0.0019
3871.00,0.0020
3870.00,0.0021
3869.00,0.0021
3868.00,0.0021
3867.00,0.0021
3866.00,0.0022
3865.00,0.0021
3864.00,0.0021
3863.00,0.0021
3862.00,0.0021
3861.00,0.0021
3860.00,0.0021
3859.00,0.0020
3858.00,0.0018
3857.00,0.0017
3856.00,0.0016
3855.00,0.0017
3854.00,0.0018
3853.00,0.0019
3852.00,0.0020
3851.00,0.0020
3850.00,0.0020
3849.00,0.0020
3848.00,0.0020
3847.00,0.0020
3846.00,0.0020
3845.00,0.0019
3844.00,0.0019
3843.00,0.0019
3842.00,0.0020
3841.00,0.0020
3840.00,0.0020
3839.00,0.0021
3838.00,0.0021
3837.00,0.0021
3836.00,0.0021
3835.00,0.0021
3834.00,0.0021
3833.00,0.0021
3832.00,0.0021
3831.00,0.0021
3830.00,0.0020
3829.00,0.0020
3828.00,0.0019
3827.00,0.0019
3826.00,0.0019
3825.00,0.0019
3824.00,0.0020
3823.00,0.0021
3822.00,0.0021
3821.00,0.0021
3820.00,0.0021
3819.00,0.0021
3818.00,0.0021
3817.00,0.0021
3816.00,0.0020
3815.00,0.0019
3814.00,0.0018
3813.00,0.0018
3812.00,0.0018
3811.00,0.0018
3810.00,0.0018
3809.00,0.0019
3808.00,0.0019
3807.00,0.0020
3806.00,0.0020
3805.00,0.0020
3804.00,0.0021
3803.00,0.0021
3802.00,0.0021
3801.00,0.0020
3800.00,0.0020
3799.00,0.0020
3798.00,0.0020
3797.00,0.0020
3796.00,0.0019
3795.00,0.0019
3794.00,0.0018
3793.00,0.0018
3792.00,0.0017
3791.00,0.0017
3790.00,0.0017
3789.00,0.0016
3788.00,0.0016
3787.00,0.0016
3786.00,0.0016
3785.00,0.0016
3784.00,0.0016
3783.00,0.0016
3782.00,0.0016
3781.00,0.0016
3780.00,0.0016
3779.00,0.0016
3778.00,0.0016
3777.00,0.0017
3776.00,0.0017
3775.00,0.0017
3774.00,0.0018
3773.00,0.0018
3772.00,0.0018
3771.00,0.0019
3770.00,0.0019
3769.00,0.0020
3768.00,0.0020
3767.00,0.0020
3766.00,0.0019
3765.00,0.0019
3764.00,0.0019
3763.00,0.0019
3762.00,0.0019
3761.00,0.0019
3760.00,0.0019
3759.00,0.0019
3758.00,0.0020
3757.00,0.0020
3756.00,0.0021
3755.00,0.0022
3754.00,0.0023
3753.00,0.0023
3752.00,0.0024
3751.00,0.0026
3750.00,0.0028
3749.00,0.0028
3748.00,0.0027
3747.00,0.0026
3746.00,0.0026
3745.00,0.0026
3744.00,0.0024
3743.00,0.0023
3742.00,0.0023
3741.00,0.0024
3740.00,0.0026
3739.00,0.0027
3738.00,0.0027
3737.00,0.0028
3736.00,0.0027
3735.00,0.0026
3734.00,0.0026
3733.00,0.0026
3732.00,0.0025
3731.00,0.0023
3730.00,0.0022
3729.00,0.0022
3728.00,0.0022
3727.00,0.0022
3726.00,0.0021
3725.00,0.0021
3724.00,0.0020
3723.00,0.0020
3722.00,0.0020
3721.00,0.0019
3720.00,0.0019
3719.00,0.0019
3718.00,0.0018
3717.00,0.0018
3716.00,0.0018
3715.00,0.0019
3714.00,0.0019
3713.00,0.0020
3712.00,0.0020
3711.00,0.0020
3710.00,0.0020
3709.00,0.0020
3708.00,0.0020
3707.00,0.0019
3706.00,0.0018
3705.00,0.0018
3704.00,0.0017
3703.00,0.0017
3702.00,0.0016
3701.00,0.0016
3700.00,0.0016
3699.00,0.0017
3698.00,0.0017
3697.00,0.0017
3696.00,0.0017
3695.00,0.0018
3694.00,0.0018
3693.00,0.0018
3692.00,0.0017
3691.00,0.0017
3690.00,0.0018
3689.00,0.0019
3688.00,0.0020
3687.00,0.0020
3686.00,0.0020
3685.00,0.0020
3684.00,0.0020
3683.00,0.0019
3682.00,0.0019
3681.00,0.0019
3680.00,0.0019
3679.00,0.0019
3678.00,0.0019
3677.00,0.0021
3676.00,0.0021
3675.00,0.0021
3674.00,0.0022
3673.00,0.0023
3672.00,0.0024
3671.00,0.0024
3670.00,0.0023
3669.00,0.0021
3668.00,0.0020
3667.00,0.0019
3666.00,0.0018
3665.00,0.0018
3664.00,0.0017
3663.00,0.0017
3662.00,0.0016
3661.00,0.0016
3660.00,0.0017
3659.00,0.0017
3658.00,0.0018
3657.00,0.0019
3656.00,0.0019
3655.00,0.0020
3654.00,0.0020
3653.00,0.0021
3652.00,0.0023
3651.00,0.0024
3650.00,0.0024
3649.00,0.0025
3648.00,0.0025
3647.00,0.0023
3646.00,0.0022
3645.00,0.0021
3644.00,0.0020
3643.00,0.0020
3642.00,0.0019
3641.00,0.0018
3640.00,0.0018
3639.00,0.0018
3638.00,0.0018
3637.00,0.0019
3636.00,0.0019
3635.00,0.0019
3634.00,0.0019
3633.00,0.0019
3632.00,0.0020
3631.00,0.0022
3630.00,0.0023
3629.00,0.0024
3628.00,0.0023
3627.00,0.0022
3626.00,0.0022
3625.00,0.0021
3624.00,0.0021
3623.00,0.0021
3622.00,0.0021
3621.00,0.0020
3620.00,0.0020
3619.00,0.0020
3618.00,0.0020
3617.00,0.0021
3616.00,0.0022
3615.00,0.0022
3614.00,0.0022
3613.00,0.0022
3612.00,0.0022
3611.00,0.0023
3610.00,0.0023
3609.00,0.0023
3608.00,0.0022
3607.00,0.0021
3606.00,0.0020
3605.00,0.0020
3604.00,0.0019
3603.00,0.0019
3602.00,0.0018
3601.00,0.0018
3600.00,0.0018
3599.00,0.0018
3598.00,0.0019
3597.00,0.0019
3596.00,0.0019
3595.00,0.0020
3594.00,0.0020
3593.00,0.0020
3592.00,0.0021
3591.00,0.0022
3590.00,0.0022
3589.00,0.0022
3588.00,0.0021
3587.00,0.0020
3586.00,0.0020
3585.00,0.0020
3584.00,0.0020
3583.00,0.0019
3582.00,0.0019
3581.00,0.0019
3580.00,0.0018
3579.00,0.0018
3578.00,0.0018
3577.00,0.0018
3576.00,0.0018
3575.00,0.0018
3574.00,0.0018
3573.00,0.0018
3572.00,0.0018
3571.00,0.0019
3570.00,0.0020
3569.00,0.0021
3568.00,0.0021
3567.00,0.0020
3566.00,0.0020
3565.00,0.0020
3564.00,0.0021
3563.00,0.0021
3562.00,0.0020
3561.00,0.0020
3560.00,0.0019
3559.00,0.0019
3558.00,0.0019
3557.00,0.0019
3556.00,0.0019
3555.00,0.0019
3554.00,0.0018
3553.00,0.0019
3552.00,0.0019
3551.00,0.0019
3550.00,0.0020
3549.00,0.0021
3548.00,0.0021
3547.00,0.0021
3546.00,0.0021
3545.00,0.0021
3544.00,0.0020
3543.00,0.0020
3542.00,0.0020
3541.00,0.0019
3540.00,0.0019
3539.00,0.0019
3538.00,0.0019
3537.00,0.0019
3536.00,0.0019
3535.00,0.0019
3534.00,0.0019
3533.00,0.0019
3532.00,0.0019
3531.00,0.0019
3530.00,0.0019
3529.00,0.0019
3528.00,0.0019
3527.00,0.0019
3526.00,0.0020
3525.00,0.0020
3524.00,0.0020
3523.00,0.0020
3522.00,0.0019
3521.00,0.0019
3520.00,0.0019
3519.00,0.0019
3518.00,0.0019
3517.00,0.0019
3516.00,0.0019
3515.00,0.0019
3514.00,0.0019
3513.00,0.0019
3512.00,0.0019
3511.00,0.0019
3510.00,0.0019
3509.00,0.0019
3508.00,0.0019
3507.00,0.0019
3506.00,0.0019
3505.00,0.0019
3504.00,0.0019
3503.00,0.0019
3502.00,0.0019
3501.00,0.0019
3500.00,0.0019
3499.00,0.0019
3498.00,0.0019
3497.00,0.0019
3496.00,0.0019
3495.00,0.0019
3494.00,0.0019
3493.00,0.0019
3492.00,0.0019
3491.00,0.0019
3490.00,0.0019
3489.00,0.0019
3488.00,0.0019
3487.00,0.0018
3486.00,0.0018
3485.00,0.0018
3484.00,0.0018
3483.00,0.0018
3482.00,0.0018
3481.00,0.0019
3480.00,0.0019
3479.00,0.0019
3478.00,0.0019
3477.00,0.0019
3476.00,0.0018
3475.00,0.0018
3474.00,0.0018
3473.00,0.0018
3472.00,0.0018
3471.00,0.0018
3470.00,0.0018
3469.00,0.0018
3468.00,0.0018
3467.00,0.0018
3466.00,0.0018
3465.00,0.0018
3464.00,0.0018
3463.00,0.0018
3462.00,0.0018
3461.00,0.0018
3460.00,0.0018
3459.00,0.0018
3458.00,0.0017
3457.00,0.0017
3456.00,0.0017
3455.00,0.0017
3454.00,0.0017
3453.00,0.0017
3452.00,0.0017
3451.00,0.0017
3450.00,0.0017
3449.00,0.0017
3448.00,0.0017
3447.00,0.0017
3446.00,0.0017
3445.00,0.0017
3444.00,0.0017
3443.00,0.0017
3442.00,0.0017
3441.00,0.0017
3440.00,0.0017
3439.00,0.0017
3438.00,0.0017
3437.00,0.0017
3436.00,0.0017
3435.00,0.0017
3434.00,0.0017
3433.00,0.0016
3432.00,0.0016
3431.00,0.0016
3430.00,0.0016
3429.00,0.0016
3428.00,0.0016
3427.00,0.0016
3426.00,0.0016
3425.00,0.0016
3424.00,0.0016
3423.00,0.0016
3422.00,0.0015
3421.00,0.0015
3420.00,0.0016
3419.00,0.0016
3418.00,0.0016
3417.00,0.0016
3416.00,0.0016
3415.00,0.0016
3414.00,0.0016
3413.00,0.0016
3412.00,0.0016
3411.00,0.0016
3410.00,0.0016
3409.00,0.0016
3408.00,0.0015
3407.00,0.0015
3406.00,0.0015
3405.00,0.0015
3404.00,0.0015
3403.00,0.0015
3402.00,0.0015
3401.00,0.0015
3400.00,0.0015
3399.00,0.0015
3398.00,0.0015
3397.00,0.0015
3396.00,0.0015
3395.00,0.0015
3394.00,0.0015
3393.00,0.0015
3392.00,0.0015
3391.00,0.0015
3390.00,0.0015
3389.00,0.0015
3388.00,0.0014
3387.00,0.0014
3386.00,0.0014
3385.00,0.0014
3384.00,0.0014
3383.00,0.0014
3382.00,0.0014
3381.00,0.0014
3380.00,0.0014
3379.00,0.0014
3378.00,0.0014
3377.00,0.0013
3376.00,0.0013
3375.00,0.0013
3374.00,0.0013
3373.00,0.0013
3372.00,0.0013
3371.00,0.0013
3370.00,0.0014
3369.00,0.0014
3368.00,0.0014
3367.00,0.0014
3366.00,0.0014
3365.00,0.0013
3364.00,0.0013
3363.00,0.0013
3362.00,0.0013
3361.00,0.0013
3360.00,0.0013
3359.00,0.0013
3358.00,0.0013
3357.00,0.0012
3356.00,0.0012
3355.00,0.0012
3354.00,0.0012
3353.00,0.0012
3352.00,0.0012
3351.00,0.0012
3350.00,0.0012
3349.00,0.0012
3348.00,0.0011
3347.00,0.0011
3346.00,0.0011
3345.00,0.0011
3344.00,0.0011
3343.00,0.0011
3342.00,0.0011
3341.00,0.0011
3340.00,0.0011
3339.00,0.0011
3338.00,0.0011
3337.00,0.0011
3336.00,0.0011
3335.00,0.0011
3334.00,0.0011
3333.00,0.0011
3332.00,0.0011
3331.00,0.0011
3330.00,0.0011
3329.00,0.0011
3328.00,0.0011
3327.00,0.0011
3326.00,0.0011
3325.00,0.0011
3324.00,0.0011
3323.00,0.0010
3322.00,0.0010
3321.00,0.0010
3320.00,0.0010
3319.00,0.0010
3318.00,0.0010
3317.00,0.0011
3316.00,0.0011
3315.00,0.0011
3314.00,0.0011
3313.00,0.0011
3312.00,0.0011
3311.00,0.0011
3310.00,0.0011
3309.00,0.0011
3308.00,0.0011
3307.00,0.0011
3306.00,0.0011
3305.00,0.0011
3304.00,0.0011
3303.00,0.0011
3302.00,0.0011
3301.00,0.0011
3300.00,0.0011
3299.00,0.0011
3298.00,0.0011
3297.00,0.0011
3296.00,0.0011
3295.00,0.0011
3294.00,0.0011
3293.00,0.0011
3292.00,0.0011
3291.00,0.0011
3290.00,0.0011
3289.00,0.0011
3288.00,0.0011
3287.00,0.0011
3286.00,0.0011
3285.00,0.0011
3284.00,0.0011
3283.00,0.0011
3282.00,0.0010
3281.00,0.0010
3280.00,0.0010
3279.00,0.0010
3278.00,0.0010
3277.00,0.0010
3276.00,0.0011
3275.00,0.0011
3274.00,0.0011
3273.00,0.0011
3272.00,0.0011
3271.00,0.0011
3270.00,0.0011
3269.00,0.0011
3268.00,0.0011
3267.00,0.0011
3266.00,0.0011
3265.00,0.0011
3264.00,0.0011
3263.00,0.0011
3262.00,0.0010
3261.00,0.0010
3260.00,0.0011
3259.00,0.0011
3258.00,0.0011
3257.00,0.0011
3256.00,0.0012
3255.00,0.0012
3254.00,0.0011
3253.00,0.0011
3252.00,0.0011
3251.00,0.0011
3250.00,0.0011
3249.00,0.0011
3248.00,0.0011
3247.00,0.0012
3246.00,0.0012
3245.00,0.0012
3244.00,0.0011
3243.00,0.0011
3242.00,0.0011
3241.00,0.0011
3240.00,0.0011
3239.00,0.0011
3238.00,0.0011
3237.00,0.0012
3236.00,0.0012
3235.00,0.0012
3234.00,0.0012
3233.00,0.0012
3232.00,0.0012
3231.00,0.0012
3230.00,0.0012
3229.00,0.0012
3228.00,0.0012
3227.00,0.0011
3226.00,0.0011
3225.00,0.0011
3224.00,0.0011
3223.00,0.0011
3222.00,0.0012
3221.00,0.0012
3220.00,0.0012
3219.00,0.0012
3218.00,0.0012
3217.00,0.0012
3216.00,0.0012
3215.00,0.0012
3214.00,0.0012
3213.00,0.0012
3212.00,0.0012
3211.00,0.0012
3210.00,0.0012
3209.00,0.0013
3208.00,0.0013
3207.00,0.0013
3206.00,0.0012
3205.00,0.0012
3204.00,0.0012
3203.00,0.0012
3202.00,0.0012
3201.00,0.0012
3200.00,0.0012
3199.00,0.0012
3198.00,0.0012
3197.00,0.0012
3196.00,0.0012
3195.00,0.0012
3194.00,0.0012
3193.00,0.0012
3192.00,0.0012
3191.00,0.0012
3190.00,0.0012
3189.00,0.0012
3188.00,0.0012
3187.00,0.0012
3186.00,0.0012
3185.00,0.0012
3184.00,0.0012
3183.00,0.0012
3182.00,0.0012
3181.00,0.0012
3180.00,0.0012
3179.00,0.0012
3178.00,0.0012
3177.00,0.0012
3176.00,0.0012
3175.00,0.0012
3174.00,0.0012
3173.00,0.0013
3172.00,0.0013
3171.00,0.0013
3170.00,0.0013
3169.00,0.0012
3168.00,0.0012
3167.00,0.0012
3166.00,0.0012
3165.00,0.0012
3164.00,0.0013
3163.00,0.0013
3162.00,0.0013
3161.00,0.0013
3160.00,0.0013
3159.00,0.0013
3158.00,0.0013
3157.00,0.0013
3156.00,0.0013
3155.00,0.0013
3154.00,0.0013
3153.00,0.0013
3152.00,0.0013
3151.00,0.0013
3150.00,0.0013
3149.00,0.0013
3148.00,0.0013
3147.00,0.0012
3146.00,0.0012
3145.00,0.0012
3144.00,0.0012
3143.00,0.0012
3142.00,0.0013
3141.00,0.0013
3140.00,0.0013
3139.00,0.0013
3138.00,0.0013
3137.00,0.0013
3136.00,0.0013
3135.00,0.0013
3134.00,0.0013
3133.00,0.0013
3132.00,0.0013
3131.00,0.0013
3130.00,0.0013
3129.00,0.0013
3128.00,0.0013
3127.00,0.0013
3126.00,0.0013
3125.00,0.0013
3124.00,0.0013
3123.00,0.0013
3122.00,0.0014
3121.00,0.0014
3120.00,0.0014
3119.00,0.0014
3118.00,0.0014
3117.00,0.0015
3116.00,0.0015
3115.00,0.0015
3114.00,0.0016
3113.00,0.0016
3112.00,0.0016
3111.00,0.0017
3110.00,0.0017
3109.00,0.0018
3108.00,0.0019
3107.00,0.0020
3106.00,0.0021
3105.00,0.0022
3104.00,0.0022
3103.00,0.0022
3102.00,0.0022
3101.00,0.0022
3100.00,0.0022
3099.00,0.0022
3098.00,0.0021
3097.00,0.0021
3096.00,0.0021
3095.00,0.0021
3094.00,0.0021
3093.00,0.0022
3092.00,0.0023
3091.00,0.0025
3090.00,0.0027
3089.00,0.0029
3088.00,0.0031
3087.00,0.0034
3086.00,0.0037
3085.00,0.0039
3084.00,0.0041
3083.00,0.0042
3082.00,0.0043
3081.00,0.0042
3080.00,0.0042
3079.00,0.0040
3078.00,0.0038
3077.00,0.0037
3076.00,0.0035
3075.00,0.0034
3074.00,0.0034
3073.00,0.0033
3072.00,0.0033
3071.00,0.0034
3070.00,0.0035
3069.00,0.0036
3068.00,0.0038
3067.00,0.0040
3066.00,0.0042
3065.00,0.0044
3064.00,0.0047
3063.00,0.0050
3062.00,0.0052
3061.00,0.0054
3060.00,0.0055
3059.00,0.0056
3058.00,0.0055
3057.00,0.0053
3056.00,0.0051
3055.00,0.0048
3054.00,0.0045
3053.00,0.0043
3052.00,0.0041
3051.00,0.0039
3050.00,0.0037
3049.00,0.0036
3048.00,0.0035
3047.00,0.0034
3046.00,0.0033
3045.00,0.0032
3044.00,0.0032
3043.00,0.0033
3042.00,0.0033
3041.00,0.0034
3040.00,0.0036
3039.00,0.0038
3038.00,0.0040
3037.00,0.0042
3036.00,0.0045
3035.00,0.0049
3034.00,0.0053
3033.00,0.0058
3032.00,0.0064
3031.00,0.0071
3030.00,0.0078
3029.00,0.0084
3028.00,0.0091
3027.00,0.0096
3026.00,0.0099
3025.00,0.0101
3024.00,0.0100
3023.00,0.0096
3022.00,0.0091
3021.00,0.0084
3020.00,0.0076
3019.00,0.0068
3018.00,0.0060
3017.00,0.0054
3016.00,0.0048
3015.00,0.0043
3014.00,0.0040
3013.00,0.0037
3012.00,0.0034
3011.00,0.0033
3010.00,0.0031
3009.00,0.0031
3008.00,0.0030
3007.00,0.0031
3006.00,0.0031
3005.00,0.0032
3004.00,0.0033
3003.00,0.0033
3002.00,0.0034
3001.00,0.0034
3000.00,0.0034
2999.00,0.0033
2998.00,0.0031
2997.00,0.0029
2996.00,0.0028
2995.00,0.0026
2994.00,0.0025
2993.00,0.0023
2992.00,0.0022
2991.00,0.0021
2990.00,0.0021
2989.00,0.0020
2988.00,0.0020
2987.00,0.0020
2986.00,0.0020
2985.00,0.0020
2984.00,0.0020
2983.00,0.0020
2982.00,0.0020
2981.00,0.0020
2980.00,0.0020
2979.00,0.0020
2978.00,0.0020
2977.00,0.0021
2976.00,0.0021
2975.00,0.0021
2974.00,0.0021
2973.00,0.0021
2972.00,0.0022
2971.00,0.0022
2970.00,0.0022
2969.00,0.0022
2968.00,0.0022
2967.00,0.0023
2966.00,0.0023
2965.00,0.0024
2964.00,0.0025
2963.00,0.0026
2962.00,0.0026
2961.00,0.0027
2960.00,0.0027
2959.00,0.0028
2958.00,0.0028
2957.00,0.0029
2956.00,0.0030
2955.00,0.0031
2954.00,0.0033
2953.00,0.0034
2952.00,0.0036
2951.00,0.0037
2950.00,0.0038
2949.00,0.0040
2948.00,0.0042
2947.00,0.0044
2946.00,0.0046
2945.00,0.0048
2944.00,0.0051
2943.00,0.0053
2942.00,0.0056
2941.00,0.0059
2940.00,0.0062
2939.00,0.0065
2938.00,0.0068
2937.00,0.0072
2936.00,0.0075
2935.00,0.0079
2934.00,0.0084
2933.00,0.0088
2932.00,0.0092
2931.00,0.0096
2930.00,0.0100
2929.00,0.0103
2928.00,0.0107
2927.00,0.0109
2926.00,0.0112
2925.00,0.0114
2924.00,0.0116
2923.00,0.0117
2922.00,0.0118
2921.00,0.0118
2920.00,0.0117
2919.00,0.0117
2918.00,0.0115
2917.00,0.0114
2916.00,0.0112
2915.00,0.0110
2914.00,0.0108
2913.00,0.0105
2912.00,0.0102
2911.00,0.0100
2910.00,0.0096
2909.00,0.0093
2908.00,0.0090
2907.00,0.0087
2906.00,0.0084
2905.00,0.0081
2904.00,0.0079
2903.00,0.0076
2902.00,0.0073
2901.00,0.0070
2900.00,0.0067
2899.00,0.0064
2898.00,0.0062
2897.00,0.0059
2896.00,0.0057
2895.00,0.0055
2894.00,0.0053
2893.00,0.0051
2892.00,0.0049
2891.00,0.0048
2890.00,0.0047
2889.00,0.0046
2888.00,0.0045
2887.00,0.0044
2886.00,0.0043
2885.00,0.0042
2884.00,0.0041
2883.00,0.0040
2882.00,0.0039
2881.00,0.0039
2880.00,0.0038
2879.00,0.0038
2878.00,0.0037
2877.00,0.0036
2876.00,0.0036
2875.00,0.0035
2874.00,0.0034
2873.00,0.0034
2872.00,0.0033
2871.00,0.0033
2870.00,0.0033
2869.00,0.0033
2868.00,0.0033
2867.00,0.0033
2866.00,0.0033
2865.00,0.0034
2864.00,0.0034
2863.00,0.0035
2862.00,0.0037
2861.00,0.0038
2860.00,0.0039
2859.00,0.0041
2858.00,0.0043
2857.00,0.0045
2856.00,0.0047
2855.00,0.0048
2854.00,0.0050
2853.00,0.0051
2852.00,0.0053
2851.00,0.0054
2850.00,0.0055
2849.00,0.0055
2848.00,0.0055
2847.00,0.0054
2846.00,0.0053
2845.00,0.0051
2844.00,0.0049
2843.00,0.0047
2842.00,0.0044
2841.00,0.0041
2840.00,0.0038
2839.00,0.0036
2838.00,0.0033
2837.00,0.0030
2836.00,0.0028
2835.00,0.0026
2834.00,0.0024
2833.00,0.0023
2832.00,0.0022
2831.00,0.0021
2830.00,0.0020
2829.00,0.0020
2828.00,0.0019
2827.00,0.0019
2826.00,0.0018
2825.00,0.0018
2824.00,0.0018
2823.00,0.0017
2822.00,0.0017
2821.00,0.0017
2820.00,0.0017
2819.00,0.0016
2818.00,0.0016
2817.00,0.0016
2816.00,0.0016
2815.00,0.0016
2814.00,0.0016
2813.00,0.0016
2812.00,0.0016
2811.00,0.0016
2810.00,0.0016
2809.00,0.0016
2808.00,0.0016
2807.00,0.0016
2806.00,0.0016
2805.00,0.0016
2804.00,0.0016
2803.00,0.0016
2802.00,0.0016
2801.00,0.0016
2800.00,0.0016
2799.00,0.0016
2798.00,0.0016
2797.00,0.0016
2796.00,0.0016
2795.00,0.0015
2794.00,0.0015
2793.00,0.0015
2792.00,0.0015
2791.00,0.0014
2790.00,0.0014
2789.00,0.0014
2788.00,0.0014
2787.00,0.0014
2786.00,0.0014
2785.00,0.0014
2784.00,0.0014
2783.00,0.0014
2782.00,0.0014
2781.00,0.0015
2780.00,0.0015
2779.00,0.0015
2778.00,0.0015
2777.00,0.0014
2776.00,0.0014
2775.00,0.0014
2774.00,0.0014
2773.00,0.0014
2772.00,0.0014
2771.00,0.0014
2770.00,0.0014
2769.00,0.0013
2768.00,0.0013
2767.00,0.0014
2766.00,0.0014
2765.00,0.0014
2764.00,0.0014
2763.00,0.0014
2762.00,0.0014
2761.00,0.0014
2760.00,0.0014
2759.00,0.0013
2758.00,0.0013
2757.00,0.0014
2756.00,0.0014
2755.00,0.0014
2754.00,0.0014
2753.00,0.0014
2752.00,0.0014
2751.00,0.0014
2750.00,0.0013
2749.00,0.0013
2748.00,0.0013
2747.00,0.0013
2746.00,0.0013
2745.00,0.0013
2744.00,0.0013
2743.00,0.0013
2742.00,0.0013
2741.00,0.0013
2740.00,0.0013
2739.00,0.0013
2738.00,0.0013
2737.00,0.0013
2736.00,0.0013
2735.00,0.0013
2734.00,0.0013
2733.00,0.0013
2732.00,0.0013
2731.00,0.0013
2730.00,0.0013
2729.00,0.0013
2728.00,0.0013
2727.00,0.0013
2726.00,0.0013
2725.00,0.0013
2724.00,0.0013
2723.00,0.0014
2722.00,0.0014
2721.00,0.0014
2720.00,0.0014
2719.00,0.0014
2718.00,0.0014
2717.00,0.0013
2716.00,0.0013
2715.00,0.0013
2714.00,0.0013
2713.00,0.0013
2712.00,0.0013
2711.00,0.0013
2710.00,0.0013
2709.00,0.0013
2708.00,0.0013
2707.00,0.0013
2706.00,0.0013
2705.00,0.0013
2704.00,0.0013
2703.00,0.0013
2702.00,0.0013
2701.00,0.0013
2700.00,0.0013
2699.00,0.0013
2698.00,0.0013
2697.00,0.0013
2696.00,0.0013
2695.00,0.0013
2694.00,0.0013
2693.00,0.0013
2692.00,0.0013
2691.00,0.0013
2690.00,0.0013
2689.00,0.0013
2688.00,0.0013
2687.00,0.0013
2686.00,0.0013
2685.00,0.0013
2684.00,0.0013
2683.00,0.0013
2682.00,0.0013
2681.00,0.0013
2680.00,0.0013
2679.00,0.0013
2678.00,0.0013
2677.00,0.0013
2676.00,0.0013
2675.00,0.0013
2674.00,0.0013
2673.00,0.0013
2672.00,0.0013
2671.00,0.0013
2670.00,0.0013
2669.00,0.0013
2668.00,0.0013
2667.00,0.0013
2666.00,0.0014
2665.00,0.0014
2664.00,0.0014
2663.00,0.0015
2662.00,0.0015
2661.00,0.0015
2660.00,0.0015
2659.00,0.0015
2658.00,0.0015
2657.00,0.0016
2656.00,0.0016
2655.00,0.0016
2654.00,0.0016
2653.00,0.0016
2652.00,0.0016
2651.00,0.0016
2650.00,0.0016
2649.00,0.0016
2648.00,0.0016
2647.00,0.0017
2646.00,0.0017
2645.00,0.0016
2644.00,0.0016
2643.00,0.0016
2642.00,0.0016
2641.00,0.0016
2640.00,0.0016
2639.00,0.0016
2638.00,0.0016
2637.00,0.0016
2636.00,0.0017
2635.00,0.0017
2634.00,0.0017
2633.00,0.0017
2632.00,0.0016
2631.00,0.0016
2630.00,0.0016
2629.00,0.0016
2628.00,0.0016
2627.00,0.0016
2626.00,0.0016
2625.00,0.0016
2624.00,0.0015
2623.00,0.0015
2622.00,0.0015
2621.00,0.0015
2620.00,0.0015
2619.00,0.0015
2618.00,0.0015
2617.00,0.0015
2616.00,0.0015
2615.00,0.0015
2614.00,0.0015
2613.00,0.0015
2612.00,0.0015
2611.00,0.0014
2610.00,0.0014
2609.00,0.0014
2608.00,0.0014
2607.00,0.0014
2606.00,0.0014
2605.00,0.0014
2604.00,0.0014
2603.00,0.0014
2602.00,0.0014
2601.00,0.0014
2600.00,0.0014
2599.00,0.0014
2598.00,0.0014
2597.00,0.0014
2596.00,0.0014
2595.00,0.0014
2594.00,0.0014
2593.00,0.0013
2592.00,0.0013
2591.00,0.0013
2590.00,0.0013
2589.00,0.0013
2588.00,0.0013
2587.00,0.0013
2586.00,0.0013
2585.00,0.0012
2584.00,0.0012
2583.00,0.0012
2582.00,0.0012
2581.00,0.0012
2580.00,0.0012
2579.00,0.0012
2578.00,0.0011
2577.00,0.0011
2576.00,0.0011
2575.00,0.0011
2574.00,0.0011
2573.00,0.0011
2572.00,0.0011
2571.00,0.0011
2570.00,0.0011
2569.00,0.0011
2568.00,0.0011
2567.00,0.0011
2566.00,0.0011
2565.00,0.0011
2564.00,0.0011
2563.00,0.0011
2562.00,0.0011
2561.00,0.0011
2560.00,0.0011
2559.00,0.0011
2558.00,0.0010
2557.00,0.0010
2556.00,0.0011
2555.00,0.0011
2554.00,0.0011
2553.00,0.0012
2552.00,0.0012
2551.00,0.0012
2550.00,0.0012
2549.00,0.0012
2548.00,0.0011
2547.00,0.0011
2546.00,0.0011
2545.00,0.0011
2544.00,0.0011
2543.00,0.0011
2542.00,0.0011
2541.00,0.0010
2540.00,0.0010
2539.00,0.0010
2538.00,0.0010
2537.00,0.0010
2536.00,0.0010
2535.00,0.0010
2534.00,0.0010
2533.00,0.0010
2532.00,0.0010
2531.00,0.0010
2530.00,0.0010
2529.00,0.0010
2528.00,0.0010
2527.00,0.0010
2526.00,0.0010
2525.00,0.0009
2524.00,0.0009
2523.00,0.0009
2522.00,0.0009
2521.00,0.0009
2520.00,0.0009
2519.00,0.0009
2518.00,0.0009
2517.00,0.0010
2516.00,0.0010
2515.00,0.0010
2514.00,0.0010
2513.00,0.0010
2512.00,0.0010
2511.00,0.0009
2510.00,0.0009
2509.00,0.0008
2508.00,0.0008
2507.00,0.0008
2506.00,0.0009
2505.00,0.0009
2504.00,0.0009
2503.00,0.0009
2502.00,0.0009
2501.00,0.0009
2500.00,0.0010
2499.00,0.0010
2498.00,0.0010
2497.00,0.0009
2496.00,0.0009
2495.00,0.0009
2494.00,0.0009
2493.00,0.0009
2492.00,0.0009
2491.00,0.0009
2490.00,0.0009
2489.00,0.0009
2488.00,0.0009
2487.00,0.0009
2486.00,0.0009
2485.00,0.0010
2484.00,0.0010
2483.00,0.0010
2482.00,0.0009
2481.00,0.0009
2480.00,0.0009
2479.00,0.0008
2478.00,0.0008
2477.00,0.0008
2476.00,0.0008
2475.00,0.0008
2474.00,0.0008
2473.00,0.0008
2472.00,0.0009
2471.00,0.0008
2470.00,0.0008
2469.00,0.0009
2468.00,0.0009
2467.00,0.0009
2466.00,0.0009
2465.00,0.0009
2464.00,0.0009
2463.00,0.0009
2462.00,0.0009
2461.00,0.0009
2460.00,0.0009
2459.00,0.0009
2458.00,0.0010
2457.00,0.0010
2456.00,0.0010
2455.00,0.0010
2454.00,0.0010
2453.00,0.0010
2452.00,0.0009
2451.00,0.0009
2450.00,0.0009
2449.00,0.0009
2448.00,0.0009
2447.00,0.0009
2446.00,0.0009
2445.00,0.0008
2444.00,0.0008
2443.00,0.0008
2442.00,0.0008
2441.00,0.0008
2440.00,0.0008
2439.00,0.0007
2438.00,0.0007
2437.00,0.0008
2436.00,0.0008
2435.00,0.0008
2434.00,0.0007
2433.00,0.0007
2432.00,0.0007
2431.00,0.0007
2430.00,0.0007
2429.00,0.0007
2428.00,0.0007
2427.00,0.0007
2426.00,0.0006
2425.00,0.0006
2424.00,0.0006
2423.00,0.0007
2422.00,0.0007
2421.00,0.0007
2420.00,0.0007
2419.00,0.0007
2418.00,0.0007
2417.00,0.0007
2416.00,0.0006
2415.00,0.0006
2414.00,0.0006
2413.00,0.0006
2412.00,0.0006
2411.00,0.0006
2410.00,0.0006
2409.00,0.0005
2408.00,0.0005
2407.00,0.0005
2406.00,0.0005
2405.00,0.0005
2404.00,0.0005
2403.00,0.0005
2402.00,0.0005
2401.00,0.0005
2400.00,0.0005
2399.00,0.0005
2398.00,0.0005
2397.00,0.0005
2396.00,0.0006
2395.00,0.0006
2394.00,0.0006
2393.00,0.0006
2392.00,0.0006
2391.00,0.0006
2390.00,0.0006
2389.00,0.0005
2388.00,0.0005
2387.00,0.0005
2386.00,0.0005
2385.00,0.0005
2384.00,0.0004
2383.00,0.0004
2382.00,0.0004
2381.00,0.0004
2380.00,0.0004
2379.00,0.0003
2378.00,0.0004
2377.00,0.0004
2376.00,0.0004
2375.00,0.0004
2374.00,0.0003
2373.00,0.0003
2372.00,0.0002
2371.00,0.0001
2370.00,0.0001
2369.00,0.0001
2368.00,0.0002
2367.00,0.0002
2366.00,0.0002
2365.00,0.0003
2364.00,0.0003
2363.00,0.0003
2362.00,0.0003
2361.00,0.0004
2360.00,0.0004
2359.00,0.0004
2358.00,0.0003
2357.00,0.0003
2356.00,0.0003
2355.00,0.0003
2354.00,0.0003
2353.00,0.0003
2352.00,0.0003
2351.00,0.0001
2350.00,-0.0001
2349.00,-0.0001
2348.00,0.0002
2347.00,0.0005
2346.00,0.0007
2345.00,0.0008
2344.00,0.0007
2343.00,0.0005
2342.00,0.0005
2341.00,0.0005
2340.00,0.0005
2339.00,0.0006
2338.00,0.0006
2337.00,0.0007
2336.00,0.0006
2335.00,0.0006
2334.00,0.0005
2333.00,0.0005
2332.00,0.0005
2331.00,0.0006
2330.00,0.0007
2329.00,0.0008
2328.00,0.0010
2327.00,0.0012
2326.00,0.0015
2325.00,0.0016
2324.00,0.0016
2323.00,0.0015
2322.00,0.0014
2321.00,0.0013
2320.00,0.0012
2319.00,0.0011
2318.00,0.0011
2317.00,0.0010
2316.00,0.0010
2315.00,0.0011
2314.00,0.0011
2313.00,0.0011
2312.00,0.0011
2311.00,0.0011
2310.00,0.0011
2309.00,0.0011
2308.00,0.0011
2307.00,0.0011
2306.00,0.0011
2305.00,0.0011
2304.00,0.0011
2303.00,0.0011
2302.00,0.0011
2301.00,0.0011
2300.00,0.0011
2299.00,0.0011
2298.00,0.0012
2297.00,0.0012
2296.00,0.0013
2295.00,0.0013
2294.00,0.0014
2293.00,0.0014
2292.00,0.0014
2291.00,0.0015
2290.00,0.0015
2289.00,0.0015
2288.00,0.0016
2287.00,0.0016
2286.00,0.0015
2285.00,0.0015
2284.00,0.0015
2283.00,0.0014
2282.00,0.0014
2281.00,0.0013
2280.00,0.0013
2279.00,0.0012
2278.00,0.0011
2277.00,0.0011
2276.00,0.0011
2275.00,0.0011
2274.00,0.0011
2273.00,0.0011
2272.00,0.0011
2271.00,0.0011
2270.00,0.0011
2269.00,0.0010
2268.00,0.0009
2267.00,0.0008
2266.00,0.0008
2265.00,0.0008
2264.00,0.0008
2263.00,0.0009
2262.00,0.0009
2261.00,0.0010
2260.00,0.0010
2259.00,0.0009
2258.00,0.0008
2257.00,0.0008
2256.00,0.0007
2255.00,0.0006
2254.00,0.0006
2253.00,0.0006
2252.00,0.0007
2251.00,0.0008
2250.00,0.0008
2249.00,0.0008
2248.00,0.0008
2247.00,0.0008
2246.00,0.0008
2245.00,0.0008
2244.00,0.0008
2243.00,0.0007
2242.00,0.0007
2241.00,0.0007
2240.00,0.0007
2239.00,0.0007
2238.00,0.0007
2237.00,0.0008
2236.00,0.0008
2235.00,0.0009
2234.00,0.0009
2233.00,0.0010
2232.00,0.0009
2231.00,0.0009
2230.00,0.0008
2229.00,0.0007
2228.00,0.0006
2227.00,0.0006
2226.00,0.0006
2225.00,0.0006
2224.00,0.0007
2223.00,0.0007
2222.00,0.0008
2221.00,0.0008
2220.00,0.0007
2219.00,0.0006
2218.00,0.0006
2217.00,0.0006
2216.00,0.0006
2215.00,0.0006
2214.00,0.0006
2213.00,0.0006
2212.00,0.0005
2211.00,0.0005
2210.00,0.0005
2209.00,0.0005
2208.00,0.0005
2207.00,0.0006
2206.00,0.0007
2205.00,0.0007
2204.00,0.0007
2203.00,0.0006
2202.00,0.0005
2201.00,0.0006
2200.00,0.0007
2199.00,0.0007
2198.00,0.0008
2197.00,0.0009
2196.00,0.0009
2195.00,0.0009
2194.00,0.0008
2193.00,0.0007
2192.00,0.0006
2191.00,0.0006
2190.00,0.0007
2189.00,0.0007
2188.00,0.0007
2187.00,0.0007
2186.00,0.0007
2185.00,0.0006
2184.00,0.0004
2183.00,0.0002
2182.00,0.0001
2181.00,0.0000
2180.00,0.0001
2179.00,0.0001
2178.00,0.0002
2177.00,0.0002
2176.00,0.0003
2175.00,0.0004
2174.00,0.0005
2173.00,0.0005
2172.00,0.0006
2171.00,0.0007
2170.00,0.0009
2169.00,0.0011
2168.00,0.0012
2167.00,0.0012
2166.00,0.0011
2165.00,0.0012
2164.00,0.0013
2163.00,0.0014
2162.00,0.0013
2161.00,0.0007
2160.00,-0.0001
2159.00,-0.0009
2158.00,-0.0013
2157.00,-0.0014
2156.00,-0.0014
2155.00,-0.0013
2154.00,-0.0012
2153.00,-0.0010
2152.00,-0.0008
2151.00,-0.0007
2150.00,-0.0007
2149.00,-0.0008
2148.00,-0.0010
2147.00,-0.0012
2146.00,-0.0012
2145.00,-0.0012
2144.00,-0.0011
2143.00,-0.0009
2142.00,-0.0008
2141.00,-0.0007
2140.00,-0.0006
2139.00,-0.0006
2138.00,-0.0006
2137.00,-0.0007
2136.00,-0.0008
2135.00,-0.0009
2134.00,-0.0010
2133.00,-0.0010
2132.00,-0.0009
2131.00,-0.0007
2130.00,-0.0006
2129.00,-0.0004
2128.00,-0.0003
2127.00,-0.0003
2126.00,-0.0002
2125.00,-0.0002
2124.00,-0.0001
2123.00,-0.0001
2122.00,-0.0000
2121.00,0.0000
2120.00,0.0001
2119.00,0.0001
2118.00,0.0002
2117.00,0.0003
2116.00,0.0004
2115.00,0.0004
2114.00,0.0004
2113.00,0.0004
2112.00,0.0004
2111.00,0.0003
2110.00,0.0003
2109.00,0.0003
2108.00,0.0003
2107.00,0.0004
2106.00,0.0004
2105.00,0.0004
2104.00,0.0004
2103.00,0.0003
2102.00,0.0003
2101.00,0.0003
2100.00,0.0003
2099.00,0.0003
2098.00,0.0002
2097.00,0.0002
2096.00,0.0001
2095.00,0.0000
2094.00,0.0001
2093.00,0.0001
2092.00,0.0002
2091.00,0.0003
2090.00,0.0005
2089.00,0.0005
2088.00,0.0006
2087.00,0.0005
2086.00,0.0005
2085.00,0.0005
2084.00,0.0005
2083.00,0.0005
2082.00,0.0006
2081.00,0.0006
2080.00,0.0006
2079.00,0.0006
2078.00,0.0006
2077.00,0.0006
2076.00,0.0005
2075.00,0.0005
2074.00,0.0005
2073.00,0.0005
2072.00,0.0006
2071.00,0.0006
2070.00,0.0006
2069.00,0.0005
2068.00,0.0004
2067.00,0.0004
2066.00,0.0004
2065.00,0.0004
2064.00,0.0004
2063.00,0.0004
2062.00,0.0004
2061.00,0.0003
2060.00,0.0003
2059.00,0.0003
2058.00,0.0003
2057.00,0.0004
2056.00,0.0004
2055.00,0.0005
2054.00,0.0006
2053.00,0.0009
2052.00,0.0011
2051.00,0.0012
2050.00,0.0012
2049.00,0.0009
2048.00,0.0006
2047.00,0.0004
2046.00,0.0003
2045.00,0.0003
2044.00,0.0004
2043.00,0.0005
2042.00,0.0005
2041.00,0.0005
2040.00,0.0005
2039.00,0.0006
2038.00,0.0006
2037.00,0.0007
2036.00,0.0007
2035.00,0.0006
2034.00,0.0004
2033.00,0.0002
2032.00,-0.0000
2031.00,-0.0002
2030.00,-0.0003
2029.00,-0.0003
2028.00,-0.0003
2027.00,-0.0003
2026.00,-0.0003
2025.00,-0.0002
2024.00,-0.0002
2023.00,-0.0001
2022.00,-0.0001
2021.00,-0.0001
2020.00,-0.0001
2019.00,-0.0002
2018.00,-0.0002
2017.00,-0.0003
2016.00,-0.0004
2015.00,-0.0005
2014.00,-0.0005
2013.00,-0.0005
2012.00,-0.0004
2011.00,-0.0003
2010.00,-0.0002
2009.00,-0.0003
2008.00,-0.0004
2007.00,-0.0006
2006.00,-0.0006
2005.00,-0.0006
2004.00,-0.0004
2003.00,-0.0002
2002.00,0.0000
2001.00,0.0001
2000.00,0.0001
1999.00,0.0000
1998.00,0.0001
1997.00,0.0002
1996.00,0.0003
1995.00,0.0005
1994.00,0.0005
1993.00,0.0005
1992.00,0.0004
1991.00,0.0004
1990.00,0.0005
1989.00,0.0006
1988.00,0.0009
1987.00,0.0010
1986.00,0.0011
1985.00,0.0011
1984.00,0.0012
1983.00,0.0013
1982.00,0.0016
1981.00,0.0017
1980.00,0.0016
1979.00,0.0012
1978.00,0.0007
1977.00,0.0003
1976.00,0.0001
1975.00,0.0000
1974.00,-0.0000
1973.00,0.0000
1972.00,0.0002
1971.00,0.0003
1970.00,0.0003
1969.00,0.0001
1968.00,0.0000
1967.00,0.0000
1966.00,0.0002
1965.00,0.0003
1964.00,0.0004
1963.00,0.0004
1962.00,0.0003
1961.00,0.0002
1960.00,0.0001
1959.00,0.0001
1958.00,0.0001
1957.00,0.0002
1956.00,0.0003
1955.00,0.0004
1954.00,0.0006
1953.00,0.0006
1952.00,0.0007
1951.00,0.0008
1950.00,0.0009
1949.00,0.0010
1948.00,0.0011
1947.00,0.0011
1946.00,0.0011
1945.00,0.0011
1944.00,0.0012
1943.00,0.0012
1942.00,0.0012
1941.00,0.0012
1940.00,0.0013
1939.00,0.0013
1938.00,0.0012
1937.00,0.0011
1936.00,0.0010
1935.00,0.0009
1934.00,0.0008
1933.00,0.0007
1932.00,0.0006
1931.00,0.0006
1930.00,0.0006
1929.00,0.0005
1928.00,0.0004
1927.00,0.0003
1926.00,0.0003
1925.00,0.0002
1924.00,0.0002
1923.00,0.0003
1922.00,0.0004
1921.00,0.0005
1920.00,0.0006
1919.00,0.0006
1918.00,0.0005
1917.00,0.0004
1916.00,0.0003
1915.00,0.0002
1914.00,0.0003
1913.00,0.0003
1912.00,0.0003
1911.00,0.0003
1910.00,0.0002
1909.00,0.0002
1908.00,0.0002
1907.00,0.0002
1906.00,0.0003
1905.00,0.0003
1904.00,0.0003
1903.00,0.0003
1902.00,0.0004
1901.00,0.0004
1900.00,0.0004
1899.00,0.0004
1898.00,0.0005
1897.00,0.0005
1896.00,0.0005
1895.00,0.0006
1894.00,0.0007
1893.00,0.0007
1892.00,0.0008
1891.00,0.0008
1890.00,0.0009
1889.00,0.0009
1888.00,0.0010
1887.00,0.0010
1886.00,0.0011
1885.00,0.0011
1884.00,0.0011
1883.00,0.0011
1882.00,0.0011
1881.00,0.0012
1880.00,0.0012
1879.00,0.0012
1878.00,0.0012
1877.00,0.0012
1876.00,0.0012
1875.00,0.0012
1874.00,0.0013
1873.00,0.0013
1872.00,0.0014
1871.00,0.0015
1870.00,0.0015
1869.00,0.0015
1868.00,0.0014
1867.00,0.0014
1866.00,0.0014
1865.00,0.0014
1864.00,0.0013
1863.00,0.0012
1862.00,0.0012
1861.00,0.0010
1860.00,0.0010
1859.00,0.0009
1858.00,0.0009
1857.00,0.0009
1856.00,0.0008
1855.00,0.0008
1854.00,0.0007
1853.00,0.0006
1852.00,0.0006
1851.00,0.0006
1850.00,0.0006
1849.00,0.0006
1848.00,0.0006
1847.00,0.0006
1846.00,0.0007
1845.00,0.0007
1844.00,0.0007
1843.00,0.0008
1842.00,0.0008
1841.00,0.0007
1840.00,0.0007
1839.00,0.0006
1838.00,0.0006
1837.00,0.0005
1836.00,0.0006
1835.00,0.0006
1834.00,0.0006
1833.00,0.0006
1832.00,0.0006
1831.00,0.0006
1830.00,0.0006
1829.00,0.0006
1828.00,0.0007
1827.00,0.0008
1826.00,0.0009
1825.00,0.0010
1824.00,0.0010
1823.00,0.0010
1822.00,0.0010
1821.00,0.0010
1820.00,0.0010
1819.00,0.0009
1818.00,0.0009
1817.00,0.0009
1816.00,0.0010
1815.00,0.0010
1814.00,0.0011
1813.00,0.0012
1812.00,0.0013
1811.00,0.0014
1810.00,0.0015
1809.00,0.0016
1808.00,0.0017
1807.00,0.0018
1806.00,0.0018
1805.00,0.0019
1804.00,0.0019
1803.00,0.0019
1802.00,0.0019
1801.00,0.0020
1800.00,0.0019
1799.00,0.0019
1798.00,0.0019
1797.00,0.0019
1796.00,0.0018
1795.00,0.0018
1794.00,0.0019
1793.00,0.0019
1792.00,0.0018
1791.00,0.0017
1790.00,0.0016
1789.00,0.0015
1788.00,0.0014
1787.00,0.0014
1786.00,0.0014
1785.00,0.0014
1784.00,0.0013
1783.00,0.0012
1782.00,0.0012
1781.00,0.0012
1780.00,0.0012
1779.00,0.0012
1778.00,0.0013
1777.00,0.0013
1776.00,0.0013
1775.00,0.0013
1774.00,0.0013
1773.00,0.0014
1772.00,0.0014
1771.00,0.0015
1770.00,0.0016
1769.00,0.0016
1768.00,0.0017
1767.00,0.0016
1766.00,0.0016
1765.00,0.0015
1764.00,0.0015
1763.00,0.0015
1762.00,0.0015
1761.00,0.0016
1760.00,0.0017
1759.00,0.0017
1758.00,0.0018
1757.00,0.0019
1756.00,0.0020
1755.00,0.0021
1754.00,0.0022
1753.00,0.0023
1752.00,0.0025
1751.00,0.0027
1750.00,0.0027
1749.00,0.0027
1748.00,0.0027
1747.00,0.0026
1746.00,0.0026
1745.00,0.0026
1744.00,0.0025
1743.00,0.0025
1742.00,0.0026
1741.00,0.0026
1740.00,0.0027
1739.00,0.0027
1738.00,0.0027
1737.00,0.0027
1736.00,0.0028
1735.00,0.0029
1734.00,0.0029
1733.00,0.0028
1732.00,0.0027
1731.00,0.0026
1730.00,0.0024
1729.00,0.0024
1728.00,0.0023
1727.00,0.0023
1726.00,0.0023
1725.00,0.0022
1724.00,0.0022
1723.00,0.0022
1722.00,0.0022
1721.00,0.0022
1720.00,0.0022
1719.00,0.0023
1718.00,0.0024
1717.00,0.0025
1716.00,0.0024
1715.00,0.0024
1714.00,0.0023
1713.00,0.0023
1712.00,0.0022
1711.00,0.0021
1710.00,0.0021
1709.00,0.0020
1708.00,0.0020
1707.00,0.0019
1706.00,0.0019
1705.00,0.0019
1704.00,0.0018
1703.00,0.0018
1702.00,0.0020
1701.00,0.0021
1700.00,0.0021
1699.00,0.0021
1698.00,0.0021
1697.00,0.0020
1696.00,0.0018
1695.00,0.0018
1694.00,0.0019
1693.00,0.0020
1692.00,0.0020
1691.00,0.0019
1690.00,0.0019
1689.00,0.0019
1688.00,0.0019
1687.00,0.0019
1686.00,0.0018
1685.00,0.0019
1684.00,0.0019
1683.00,0.0019
1682.00,0.0020
1681.00,0.0020
1680.00,0.0020
1679.00,0.0020
1678.00,0.0021
1677.00,0.0021
1676.00,0.0022
1675.00,0.0022
1674.00,0.0022
1673.00,0.0022
1672.00,0.0022
1671.00,0.0022
1670.00,0.0021
1669.00,0.0019
1668.00,0.0019
1667.00,0.0019
1666.00,0.0019
1665.00,0.0020
1664.00,0.0020
1663.00,0.0020
1662.00,0.0020
1661.00,0.0019
1660.00,0.0019
1659.00,0.0019
1658.00,0.0019
1657.00,0.0018
1656.00,0.0016
1655.00,0.0015
1654.00,0.0014
1653.00,0.0013
1652.00,0.0014
1651.00,0.0016
1650.00,0.0018
1649.00,0.0019
1648.00,0.0019
1647.00,0.0020
1646.00,0.0020
1645.00,0.0020
1644.00,0.0020
1643.00,0.0020
1642.00,0.0019
1641.00,0.0019
1640.00,0.0019
1639.00,0.0019
1638.00,0.0019
1637.00,0.0018
1636.00,0.0018
1635.00,0.0018
1634.00,0.0018
1633.00,0.0018
1632.00,0.0018
1631.00,0.0019
1630.00,0.0019
1629.00,0.0019
1628.00,0.0018
1627.00,0.0019
1626.00,0.0019
1625.00,0.0019
1624.00,0.0020
1623.00,0.0020
1622.00,0.0020
1621.00,0.0020
1620.00,0.0020
1619.00,0.0019
1618.00,0.0019
1617.00,0.0019
1616.00,0.0020
1615.00,0.0022
1614.00,0.0023
1613.00,0.0025
1612.00,0.0026
1611.00,0.0029
1610.00,0.0032
1609.00,0.0037
1608.00,0.0043
1607.00,0.0051
1606.00,0.0061
1605.00,0.0072
1604.00,0.0084
1603.00,0.0094
1602.00,0.0102
1601.00,0.0105
1600.00,0.0103
1599.00,0.0097
1598.00,0.0087
1597.00,0.0076
1596.00,0.0066
1595.00,0.0057
1594.00,0.0050
1593.00,0.0044
1592.00,0.0040
1591.00,0.0037
1590.00,0.0034
1589.00,0.0033
1588.00,0.0033
1587.00,0.0035
1586.00,0.0038
1585.00,0.0041
1584.00,0.0045
1583.00,0.0046
1582.00,0.0045
1581.00,0.0041
1580.00,0.0036
1579.00,0.0031
1578.00,0.0027
1577.00,0.0023
1576.00,0.0021
1575.00,0.0021
1574.00,0.0020
1573.00,0.0020
1572.00,0.0019
1571.00,0.0019
1570.00,0.0018
1569.00,0.0018
1568.00,0.0018
1567.00,0.0019
1566.00,0.0019
1565.00,0.0018
1564.00,0.0017
1563.00,0.0016
1562.00,0.0015
1561.00,0.0014
1560.00,0.0016
1559.00,0.0019
1558.00,0.0021
1557.00,0.0021
1556.00,0.0021
1555.00,0.0022
1554.00,0.0022
1553.00,0.0022
1552.00,0.0022
1551.00,0.0022
1550.00,0.0022
1549.00,0.0023
1548.00,0.0024
1547.00,0.0025
1546.00,0.0026
1545.00,0.0027
1544.00,0.0027
1543.00,0.0027
1542.00,0.0028
1541.00,0.0028
1540.00,0.0026
1539.00,0.0024
1538.00,0.0023
1537.00,0.0023
1536.00,0.0023
1535.00,0.0023
1534.00,0.0023
1533.00,0.0021
1532.00,0.0021
1531.00,0.0020
1530.00,0.0020
1529.00,0.0020
1528.00,0.0020
1527.00,0.0020
1526.00,0.0020
1525.00,0.0021
1524.00,0.0021
1523.00,0.0021
1522.00,0.0021
1521.00,0.0021
1520.00,0.0021
1519.00,0.0020
1518.00,0.0020
1517.00,0.0020
1516.00,0.0020
1515.00,0.0021
1514.00,0.0022
1513.00,0.0023
1512.00,0.0023
1511.00,0.0023
1510.00,0.0022
1509.00,0.0022
1508.00,0.0022
1507.00,0.0023
1506.00,0.0026
1505.00,0.0029
1504.00,0.0031
1503.00,0.0034
1502.00,0.0038
1501.00,0.0043
1500.00,0.0051
1499.00,0.0063
1498.00,0.0083
1497.00,0.0114
1496.00,0.0155
1495.00,0.0198
1494.00,0.0236
1493.00,0.0262
1492.00,0.0270
1491.00,0.0252
1490.00,0.0213
1489.00,0.0167
1488.00,0.0130
1487.00,0.0104
1486.00,0.0086
1485.00,0.0073
1484.00,0.0063
1483.00,0.0055
1482.00,0.0049
1481.00,0.0044
1480.00,0.0041
1479.00,0.0039
1478.00,0.0037
1477.00,0.0036
1476.00,0.0035
1475.00,0.0035
1474.00,0.0036
1473.00,0.0037
1472.00,0.0036
1471.00,0.0035
1470.00,0.0034
1469.00,0.0034
1468.00,0.0034
1467.00,0.0034
1466.00,0.0035
1465.00,0.0037
1464.00,0.0039
1463.00,0.0040
1462.00,0.0043
1461.00,0.0046
1460.00,0.0051
1459.00,0.0059
1458.00,0.0076
1457.00,0.0107
1456.00,0.0147
1455.00,0.0186
1454.00,0.0221
1453.00,0.0249
1452.00,0.0265
1451.00,0.0265
1450.00,0.0253
1449.00,0.0234
1448.00,0.0211
1447.00,0.0190
1446.00,0.0173
1445.00,0.0160
1444.00,0.0148
1443.00,0.0136
1442.00,0.0124
1441.00,0.0114
1440.00,0.0106
1439.00,0.0099
1438.00,0.0092
1437.00,0.0083
1436.00,0.0072
1435.00,0.0063
1434.00,0.0057
1433.00,0.0052
1432.00,0.0047
1431.00,0.0043
1430.00,0.0038
1429.00,0.0035
1428.00,0.0033
1427.00,0.0031
1426.00,0.0030
1425.00,0.0029
1424.00,0.0028
1423.00,0.0027
1422.00,0.0027
1421.00,0.0027
1420.00,0.0027
1419.00,0.0026
1418.00,0.0025
1417.00,0.0026
1416.00,0.0026
1415.00,0.0025
1414.00,0.0025
1413.00,0.0024
1412.00,0.0024
1411.00,0.0024
1410.00,0.0024
1409.00,0.0024
1408.00,0.0025
1407.00,0.0025
1406.00,0.0025
1405.00,0.0025
1404.00,0.0025
1403.00,0.0025
1402.00,0.0025
1401.00,0.0026
1400.00,0.0027
1399.00,0.0027
1398.00,0.0027
1397.00,0.0028
1396.00,0.0028
1395.00,0.0028
1394.00,0.0029
1393.00,0.0030
1392.00,0.0032
1391.00,0.0033
1390.00,0.0034
1389.00,0.0036
1388.00,0.0037
1387.00,0.0039
1386.00,0.0041
1385.00,0.0042
1384.00,0.0044
1383.00,0.0045
1382.00,0.0047
1381.00,0.0048
1380.00,0.0050
1379.00,0.0051
1378.00,0.0053
1377.00,0.0054
1376.00,0.0055
1375.00,0.0056
1374.00,0.0056
1373.00,0.0056
1372.00,0.0057
1371.00,0.0057
1370.00,0.0057
1369.00,0.0056
1368.00,0.0056
1367.00,0.0056
1366.00,0.0056
1365.00,0.0055
1364.00,0.0054
1363.00,0.0053
1362.00,0.0052
1361.00,0.0052
1360.00,0.0051
1359.00,0.0050
1358.00,0.0050
1357.00,0.0049
1356.00,0.0048
1355.00,0.0048
1354.00,0.0048
1353.00,0.0048
1352.00,0.0048
1351.00,0.0048
1350.00,0.0048
1349.00,0.0047
1348.00,0.0047
1347.00,0.0047
1346.00,0.0046
1345.00,0.0045
1344.00,0.0044
1343.00,0.0043
1342.00,0.0042
1341.00,0.0041
1340.00,0.0040
1339.00,0.0039
1338.00,0.0039
1337.00,0.0039
1336.00,0.0040
1335.00,0.0041
1334.00,0.0042
1333.00,0.0043
1332.00,0.0044
1331.00,0.0046
1330.00,0.0047
1329.00,0.0047
1328.00,0.0047
1327.00,0.0047
1326.00,0.0046
1325.00,0.0045
1324.00,0.0045
1323.00,0.0044
1322.00,0.0043
1321.00,0.0043
1320.00,0.0042
1319.00,0.0042
1318.00,0.0042
1317.00,0.0042
1316.00,0.0042
1315.00,0.0043
1314.00,0.0044
1313.00,0.0044
1312.00,0.0044
1311.00,0.0044
1310.00,0.0044
1309.00,0.0044
1308.00,0.0043
1307.00,0.0043
1306.00,0.0042
1305.00,0.0042
1304.00,0.0041
1303.00,0.0040
1302.00,0.0039
1301.00,0.0038
1300.00,0.0037
1299.00,0.0037
1298.00,0.0036
1297.00,0.0036
1296.00,0.0036
1295.00,0.0036
1294.00,0.0036
1293.00,0.0035
1292.00,0.0035
1291.00,0.0035
1290.00,0.0034
1289.00,0.0034
1288.00,0.0034
1287.00,0.0033
1286.00,0.0033
1285.00,0.0033
1284.00,0.0033
1283.00,0.0033
1282.00,0.0033
1281.00,0.0033
1280.00,0.0033
1279.00,0.0033
1278.00,0.0032
1277.00,0.0032
1276.00,0.0031
1275.00,0.0031
1274.00,0.0030
1273.00,0.0029
1272.00,0.0028
1271.00,0.0028
1270.00,0.0027
1269.00,0.0027
1268.00,0.0026
1267.00,0.0026
1266.00,0.0026
1265.00,0.0026
1264.00,0.0026
1263.00,0.0026
1262.00,0.0026
1261.00,0.0025
1260.00,0.0025
1259.00,0.0025
1258.00,0.0026
1257.00,0.0026
1256.00,0.0026
1255.00,0.0026
1254.00,0.0026
1253.00,0.0026
1252.00,0.0026
1251.00,0.0026
1250.00,0.0027
1249.00,0.0027
1248.00,0.0027
1247.00,0.0027
1246.00,0.0027
1245.00,0.0027
1244.00,0.0027
1243.00,0.0027
1242.00,0.0027
1241.00,0.0027
1240.00,0.0027
1239.00,0.0027
1238.00,0.0027
1237.00,0.0027
1236.00,0.0027
1235.00,0.0027
1234.00,0.0027
1233.00,0.0027
1232.00,0.0027
1231.00,0.0027
1230.00,0.0027
1229.00,0.0028
1228.00,0.0028
1227.00,0.0028
1226.00,0.0028
1225.00,0.0028
1224.00,0.0028
1223.00,0.0028
1222.00,0.0028
1221.00,0.0028
1220.00,0.0028
1219.00,0.0028
1218.00,0.0028
1217.00,0.0028
1216.00,0.0029
1215.00,0.0029
1214.00,0.0029
1213.00,0.0030
1212.00,0.0030
1211.00,0.0030
1210.00,0.0031
1209.00,0.0031
1208.00,0.0032
1207.00,0.0033
1206.00,0.0034
1205.00,0.0035
1204.00,0.0036
1203.00,0.0037
1202.00,0.0038
1201.00,0.0039
1200.00,0.0041
1199.00,0.0042
1198.00,0.0043
1197.00,0.0044
1196.00,0.0044
1195.00,0.0045
1194.00,0.0045
1193.00,0.0046
1192.00,0.0046
1191.00,0.0046
1190.00,0.0047
1189.00,0.0047
1188.00,0.0049
1187.00,0.0050
1186.00,0.0052
1185.00,0.0055
1184.00,0.0059
1183.00,0.0062
1182.00,0.0063
1181.00,0.0064
1180.00,0.0062
1179.00,0.0059
1178.00,0.0055
1177.00,0.0050
1176.00,0.0046
1175.00,0.0043
1174.00,0.0040
1173.00,0.0038
1172.00,0.0037
1171.00,0.0036
1170.00,0.0035
1169.00,0.0034
1168.00,0.0034
1167.00,0.0033
1166.00,0.0033
1165.00,0.0033
1164.00,0.0033
1163.00,0.0034
1162.00,0.0035
1161.00,0.0037
1160.00,0.0040
1159.00,0.0044
1158.00,0.0049
1157.00,0.0053
1156.00,0.0057
1155.00,0.0060
1154.00,0.0060
1153.00,0.0059
1152.00,0.0055
1151.00,0.0051
1150.00,0.0046
1149.00,0.0042
1148.00,0.0038
1147.00,0.0036
1146.00,0.0034
1145.00,0.0033
1144.00,0.0031
1143.00,0.0030
1142.00,0.0029
1141.00,0.0028
1140.00,0.0027
1139.00,0.0026
1138.00,0.0026
1137.00,0.0025
1136.00,0.0025
1135.00,0.0025
1134.00,0.0025
1133.00,0.0024
1132.00,0.0024
1131.00,0.0024
1130.00,0.0024
1129.00,0.0024
1128.00,0.0023
1127.00,0.0023
1126.00,0.0023
1125.00,0.0023
1124.00,0.0023
1123.00,0.0024
1122.00,0.0024
1121.00,0.0024
1120.00,0.0025
1119.00,0.0026
1118.00,0.0027
1117.00,0.0028
1116.00,0.0029
1115.00,0.0029
1114.00,0.0029
1113.00,0.0029
1112.00,0.0029
1111.00,0.0029
1110.00,0.0029
1109.00,0.0029
1108.00,0.0028
1107.00,0.0028
1106.00,0.0028
1105.00,0.0028
1104.00,0.0028
1103.00,0.0029
1102.00,0.0029
1101.00,0.0030
1100.00,0.0031
1099.00,0.0031
1098.00,0.0032
1097.00,0.0033
1096.00,0.0034
1095.00,0.0035
1094.00,0.0035
1093.00,0.0036
1092.00,0.0036
1091.00,0.0037
1090.00,0.0038
1089.00,0.0039
1088.00,0.0041
1087.00,0.0042
1086.00,0.0043
1085.00,0.0045
1084.00,0.0047
1083.00,0.0049
1082.00,0.0050
1081.00,0.0052
1080.00,0.0054
1079.00,0.0055
1078.00,0.0057
1077.00,0.0059
1076.00,0.0062
1075.00,0.0065
1074.00,0.0069
1073.00,0.0072
1072.00,0.0075
1071.00,0.0077
1070.00,0.0079
1069.00,0.0080
1068.00,0.0080
1067.00,0.0078
1066.00,0.0074
1065.00,0.0070
1064.00,0.0066
1063.00,0.0062
1062.00,0.0058
1061.00,0.0054
1060.00,0.0050
1059.00,0.0047
1058.00,0.0045
1057.00,0.0043
1056.00,0.0041
1055.00,0.0040
1054.00,0.0039
1053.00,0.0038
1052.00,0.0036
1051.00,0.0035
1050.00,0.0034
1049.00,0.0033
1048.00,0.0032
1047.00,0.0031
1046.00,0.0031
1045.00,0.0030
1044.00,0.0030
1043.00,0.0031
1042.00,0.0031
1041.00,0.0032
1040.00,0.0033
1039.00,0.0035
1038.00,0.0038
1037.00,0.0042
1036.00,0.0049
1035.00,0.0059
1034.00,0.0072
1033.00,0.0086
1032.00,0.0101
1031.00,0.0115
1030.00,0.0126
1029.00,0.0134
1028.00,0.0137
1027.00,0.0136
1026.00,0.0129
1025.00,0.0120
1024.00,0.0109
1023.00,0.0100
1022.00,0.0091
1021.00,0.0084
1020.00,0.0078
1019.00,0.0073
1018.00,0.0069
1017.00,0.0065
1016.00,0.0062
1015.00,0.0059
1014.00,0.0056
1013.00,0.0054
1012.00,0.0052
1011.00,0.0051
1010.00,0.0050
1009.00,0.0049
1008.00,0.0049
1007.00,0.0050
1006.00,0.0051
1005.00,0.0053
1004.00,0.0055
1003.00,0.0055
1002.00,0.0054
1001.00,0.0051
1000.00,0.0047
999.00,0.0043
998.00,0.0039
997.00,0.0036
996.00,0.0035
995.00,0.0035
994.00,0.0035
993.00,0.0036
992.00,0.0036
991.00,0.0037
990.00,0.0037
989.00,0.0037
988.00,0.0038
987.00,0.0039
986.00,0.0041
985.00,0.0042
984.00,0.0044
983.00,0.0046
982.00,0.0048
981.00,0.0050
980.00,0.0051
979.00,0.0051
978.00,0.0051
977.00,0.0051
976.00,0.0050
975.00,0.0049
974.00,0.0048
973.00,0.0048
972.00,0.0048
971.00,0.0050
970.00,0.0051
969.00,0.0054
968.00,0.0056
967.00,0.0059
966.00,0.0060
965.00,0.0061
964.00,0.0062
963.00,0.0061
962.00,0.0060
961.00,0.0058
960.00,0.0055
959.00,0.0053
958.00,0.0050
957.00,0.0048
956.00,0.0046
955.00,0.0045
954.00,0.0044
953.00,0.0044
952.00,0.0044
951.00,0.0044
950.00,0.0044
949.00,0.0045
948.00,0.0046
947.00,0.0047
946.00,0.0049
945.00,0.0050
944.00,0.0051
943.00,0.0051
942.00,0.0051
941.00,0.0050
940.00,0.0049
939.00,0.0047
938.00,0.0045
937.00,0.0044
936.00,0.0042
935.00,0.0041
934.00,0.0039
933.00,0.0037
932.00,0.0036
931.00,0.0035
930.00,0.0034
929.00,0.0034
928.00,0.0034
927.00,0.0034
926.00,0.0035
925.00,0.0035
924.00,0.0036
923.00,0.0037
922.00,0.0038
921.00,0.0040
920.00,0.0041
919.00,0.0044
918.00,0.0046
917.00,0.0050
916.00,0.0054
915.00,0.0059
914.00,0.0065
913.00,0.0071
912.00,0.0079
911.00,0.0086
910.00,0.0093
909.00,0.0100
908.00,0.0105
907.00,0.0109
906.00,0.0109
905.00,0.0107
904.00,0.0102
903.00,0.0095
902.00,0.0087
901.00,0.0078
900.00,0.0070
899.00,0.0062
898.00,0.0055
897.00,0.0049
896.00,0.0044
895.00,0.0041
894.00,0.0038
893.00,0.0036
892.00,0.0034
891.00,0.0033
890.00,0.0032
889.00,0.0031
888.00,0.0031
887.00,0.0030
886.00,0.0030
885.00,0.0029
884.00,0.0029
883.00,0.0028
882.00,0.0027
881.00,0.0026
880.00,0.0026
879.00,0.0026
878.00,0.0026
877.00,0.0026
876.00,0.0026
875.00,0.0026
874.00,0.0025
873.00,0.0025
872.00,0.0025
871.00,0.0025
870.00,0.0024
869.00,0.0024
868.00,0.0024
867.00,0.0024
866.00,0.0023
865.00,0.0023
864.00,0.0023
863.00,0.0023
862.00,0.0023
861.00,0.0023
860.00,0.0023
859.00,0.0023
858.00,0.0023
857.00,0.0023
856.00,0.0023
855.00,0.0023
854.00,0.0024
853.00,0.0026
852.00,0.0028
851.00,0.0031
850.00,0.0033
849.00,0.0036
848.00,0.0040
847.00,0.0043
846.00,0.0046
845.00,0.0048
844.00,0.0051
843.00,0.0052
842.00,0.0053
841.00,0.0053
840.00,0.0052
839.00,0.0050
838.00,0.0047
837.00,0.0044
836.00,0.0041
835.00,0.0037
834.00,0.0034
833.00,0.0030
832.00,0.0028
831.00,0.0026
830.00,0.0024
829.00,0.0023
828.00,0.0022
827.00,0.0022
826.00,0.0022
825.00,0.0022
824.00,0.0022
823.00,0.0022
822.00,0.0021
821.00,0.0021
820.00,0.0021
819.00,0.0021
818.00,0.0021
817.00,0.0022
816.00,0.0022
815.00,0.0022
814.00,0.0023
813.00,0.0023
812.00,0.0023
811.00,0.0024
810.00,0.0024
809.00,0.0024
808.00,0.0024
807.00,0.0025
806.00,0.0025
805.00,0.0025
804.00,0.0026
803.00,0.0026
802.00,0.0027
801.00,0.0028
800.00,0.0029
799.00,0.0031
798.00,0.0032
797.00,0.0034
796.00,0.0036
795.00,0.0038
794.00,0.0041
793.00,0.0043
792.00,0.0046
791.00,0.0049
790.00,0.0052
789.00,0.0055
788.00,0.0059
787.00,0.0062
786.00,0.0066
785.00,0.0070
784.00,0.0074
783.00,0.0079
782.00,0.0085
781.00,0.0091
780.00,0.0099
779.00,0.0106
778.00,0.0115
777.00,0.0125
776.00,0.0137
775.00,0.0151
774.00,0.0165
773.00,0.0180
772.00,0.0196
771.00,0.0214
770.00,0.0232
769.00,0.0251
768.00,0.0271
767.00,0.0291
766.00,0.0310
765.00,0.0328
764.00,0.0346
763.00,0.0365
762.00,0.0384
761.00,0.0405
760.00,0.0426
759.00,0.0445
758.00,0.0461
757.00,0.0474
756.00,0.0483
755.00,0.0488
754.00,0.0489
753.00,0.0489
752.00,0.0488
751.00,0.0487
750.00,0.0486
749.00,0.0485
748.00,0.0482
747.00,0.0475
746.00,0.0462
745.00,0.0442
744.00,0.0415
743.00,0.0384
742.00,0.0350
741.00,0.0317
740.00,0.0285
739.00,0.0256
738.00,0.0230
737.00,0.0206
736.00,0.0183
735.00,0.0161
734.00,0.0141
733.00,0.0121
732.00,0.0104
731.00,0.0090
730.00,0.0079
729.00,0.0071
728.00,0.0065
727.00,0.0061
726.00,0.0058
725.00,0.0056
724.00,0.0054
723.00,0.0052
722.00,0.0051
721.00,0.0051
720.00,0.0052
719.00,0.0053
718.00,0.0055
717.00,0.0057
716.00,0.0062
715.00,0.0067
714.00,0.0075
713.00,0.0086
712.00,0.0101
711.00,0.0122
710.00,0.0150
709.00,0.0188
708.00,0.0236
707.00,0.0297
706.00,0.0370
705.00,0.0456
704.00,0.0554
703.00,0.0662
702.00,0.0778
701.00,0.0898
700.00,0.1021
699.00,0.1144
698.00,0.1264
697.00,0.1378
696.00,0.1472
695.00,0.1528
694.00,0.1527
693.00,0.1461
692.00,0.1340
691.00,0.1189
690.00,0.1034
689.00,0.0892
688.00,0.0772
687.00,0.0674
686.00,0.0596
685.00,0.0534
684.00,0.0483
683.00,0.0440
682.00,0.0403
681.00,0.0371
680.00,0.0343
679.00,0.0319
678.00,0.0298
677.00,0.0280
676.00,0.0265
675.00,0.0252
674.00,0.0241
673.00,0.0231
672.00,0.0222
671.00,0.0214
670.00,0.0205
669.00,0.0194
668.00,0.0183
667.00,0.0173
666.00,0.0167
665.00,0.0163
664.00,0.0159
663.00,0.0153
662.00,0.0147
661.00,0.0140
660.00,0.0133
659.00,0.0126
658.00,0.0120
657.00,0.0114
656.00,0.0108
655.00,0.0103
654.00,0.0098
653.00,0.0093
652.00,0.0089
651.00,0.0086
650.00,0.0083
649.00,0.0081
648.00,0.0078
647.00,0.0074
646.00,0.0071
645.00,0.0069
644.00,0.0067
643.00,0.0067
642.00,0.0067
641.00,0.0067
640.00,0.0067
639.00,0.0068
638.00,0.0069
637.00,0.0071
636.00,0.0074
635.00,0.0076
634.00,0.0079
633.00,0.0081
632.00,0.0083
631.00,0.0084
630.00,0.0085
629.00,0.0087
628.00,0.0088
627.00,0.0090
626.00,0.0091
625.00,0.0092
624.00,0.0093
623.00,0.0095
622.00,0.0097
621.00,0.0098
620.00,0.0097
619.00,0.0095
618.00,0.0091
617.00,0.0087
616.00,0.0085
615.00,0.0083
614.00,0.0081
613.00,0.0078
612.00,0.0076
611.00,0.0074
610.00,0.0072
609.00,0.0072
608.00,0.0072
607.00,0.0072
606.00,0.0071
605.00,0.0071
604.00,0.0071
603.00,0.0071
602.00,0.0072
601.00,0.0073
600.00,0.0074
599.00,0.0075
598.00,0.0076
597.00,0.0077
596.00,0.0079
595.00,0.0080
594.00,0.0081
593.00,0.0081
592.00,0.0082
591.00,0.0083
590.00,0.0085
589.00,0.0087
588.00,0.0090
587.00,0.0092
586.00,0.0095
585.00,0.0097
584.00,0.0101
583.00,0.0103
582.00,0.0106
581.00,0.0109
580.00,0.0113
579.00,0.0117
578.00,0.0122
577.00,0.0127
576.00,0.0135
575.00,0.0144
574.00,0.0153
573.00,0.0160
572.00,0.0168
571.00,0.0176
570.00,0.0184
569.00,0.0191
568.00,0.0199
567.00,0.0205
566.00,0.0211
565.00,0.0217
564.00,0.0224
563.00,0.0231
562.00,0.0238
561.00,0.0245
560.00,0.0252
559.00,0.0259
558.00,0.0266
557.00,0.0273
556.00,0.0282
555.00,0.0291
554.00,0.0300
553.00,0.0310
552.00,0.0321
551.00,0.0332
550.00,0.0344
549.00,0.0357
548.00,0.0373
547.00,0.0391
546.00,0.0408
545.00,0.0427
544.00,0.0447
543.00,0.0467
542.00,0.0486
541.00,0.0504
540.00,0.0521
539.00,0.0533
538.00,0.0538
537.00,0.0537
536.00,0.0529
535.00,0.0515
534.00,0.0493
533.00,0.0468
532.00,0.0442
531.00,0.0415
530.00,0.0387
529.00,0.0360
528.00,0.0336
527.00,0.0313
526.00,0.0289
525.00,0.0267
524.00,0.0248
523.00,0.0233
522.00,0.0219
521.00,0.0209
520.00,0.0200
519.00,0.0192
518.00,0.0183
517.00,0.0174
516.00,0.0168
515.00,0.0163
514.00,0.0158
513.00,0.0154
512.00,0.0151
511.00,0.0147
510.00,0.0142
509.00,0.0138
508.00,0.0133
507.00,0.0128
506.00,0.0123
505.00,0.0119
504.00,0.0118
503.00,0.0116
502.00,0.0114
501.00,0.0109
500.00,0.0104
499.00,0.0100
498.00,0.0098
497.00,0.0097
496.00,0.0098
495.00,0.0097
494.00,0.0095
493.00,0.0091
492.00,0.0090
491.00,0.0089
490.00,0.0088
489.00,0.0089
488.00,0.0090
487.00,0.0090
486.00,0.0088
485.00,0.0086
484.00,0.0086
483.00,0.0087
482.00,0.0086
481.00,0.0084
480.00,0.0084
479.00,0.0085
478.00,0.0086
477.00,0.0086
476.00,0.0086
475.00,0.0084
474.00,0.0078
473.00,0.0074
472.00,0.0072
471.00,0.0072
470.00,0.0073
469.00,0.0074
468.00,0.0076
467.00,0.0077
466.00,0.0075
465.00,0.0073
464.00,0.0072
463.00,0.0071
462.00,0.0071
461.00,0.0073
460.00,0.0076
459.00,0.0079
458.00,0.0078
457.00,0.0076
456.00,0.0074
455.00,0.0072
454.00,0.0071
453.00,0.0071
452.00,0.0071
451.00,0.0070
450.00,0.0068
449.00,0.0068
448.00,0.0071
447.00,0.0073
446.00,0.0072
445.00,0.0070
444.00,0.0070
443.00,0.0071
442.00,0.0071
441.00,0.0070
440.00,0.0069
439.00,0.0066
438.00,0.0061
437.00,0.0057
436.00,0.0055
435.00,0.0054
434.00,0.0051
433.00,0.0049
432.00,0.0049
431.00,0.0051
430.00,0.0055
429.00,0.0058
428.00,0.0061
427.00,0.0061
426.00,0.0061
425.00,0.0063
424.00,0.0067
423.00,0.0068
422.00,0.0067
421.00,0.0067
420.00,0.0071
419.00,0.0073
418.00,0.0066
417.00,0.0060
416.00,0.0061
415.00,0.0065
414.00,0.0070
413.00,0.0072
412.00,0.0072
411.00,0.0068
410.00,0.0062
409.00,0.0061
408.00,0.0067
407.00,0.0076
406.00,0.0084
405.00,0.0088
404.00,0.0090
403.00,0.0087
402.00,0.0078
401.00,0.0068
400.00,0.0058
