Created as New Dataset,Sample 760 By YargerLab Date Tuesday, July 01 2025
cm-1,A
4000.00,0.0018
3999.00,0.0018
3998.00,0.0018
3997.00,0.0018
3996.00,0.0018
3995.00,0.0018
3994.00,0.0018
3993.00,0.0018
3992.00,0.0018
3991.00,0.0018
3990.00,0.0018
3989.00,0.0018
3988.00,0.0018
3987.00,0.0018
3986.00,0.0018
3985.00,0.0018
3984.00,0.0018
3983.00,0.0018
3982.00,0.0018
3981.00,0.0018
3980.00,0.0018
3979.00,0.0018
3978.00,0.0018
3977.00,0.0018
3976.00,0.0018
3975.00,0.0018
3974.00,0.0018
3973.00,0.0018
3972.00,0.0018
3971.00,0.0018
3970.00,0.0018
3969.00,0.0018
3968.00,0.0018
3967.00,0.0017
3966.00,0.0017
3965.00,0.0018
3964.00,0.0018
3963.00,0.0018
3962.00,0.0018
3961.00,0.0018
3960.00,0.0018
3959.00,0.0018
3958.00,0.0018
3957.00,0.0018
3956.00,0.0018
3955.00,0.0018
3954.00,0.0018
3953.00,0.0018
3952.00,0.0018
3951.00,0.0018
3950.00,0.0018
3949.00,0.0019
3948.00,0.0019
3947.00,0.0019
3946.00,0.0019
3945.00,0.0019
3944.00,0.0018
3943.00,0.0018
3942.00,0.0017
3941.00,0.0018
3940.00,0.0018
3939.00,0.0018
3938.00,0.0019
3937.00,0.0019
3936.00,0.0019
3935.00,0.0020
3934.00,0.0020
3933.00,0.0020
3932.00,0.0020
3931.00,0.0019
3930.00,0.0019
3929.00,0.0019
3928.00,0.0019
3927.00,0.0018
3926.00,0.0018
3925.00,0.0018
3924.00,0.0018
3923.00,0.0019
3922.00,0.0020
3921.00,0.0021
3920.00,0.0021
3919.00,0.0022
3918.00,0.0022
3917.00,0.0022
3916.00,0.0021
3915.00,0.0020
3914.00,0.0020
3913.00,0.0019
3912.00,0.0019
3911.00,0.0019
3910.00,0.0018
3909.00,0.0018
3908.00,0.0018
3907.00,0.0018
3906.00,0.0019
3905.00,0.0020
3904.00,0.0022
3903.00,0.0024
3902.00,0.0025
3901.00,0.0024
3900.00,0.0023
3899.00,0.0022
3898.00,0.0021
3897.00,0.0021
3896.00,0.0021
3895.00,0.0021
3894.00,0.0021
3893.00,0.0020
3892.00,0.0021
3891.00,0.0021
3890.00,0.0022
3889.00,0.0022
3888.00,0.0023
3887.00,0.0023
3886.00,0.0023
3885.00,0.0022
3884.00,0.0021
3883.00,0.0021
3882.00,0.0021
3881.00,0.0021
3880.00,0.0021
3879.00,0.0021
3878.00,0.0021
3877.00,0.0022
3876.00,0.0021
3875.00,0.0021
3874.00,0.0020
3873.00,0.0021
3872.00,0.0022
3871.00,0.0024
3870.00,0.0025
3869.00,0.0025
3868.00,0.0025
3867.00,0.0025
3866.00,0.0025
3865.00,0.0025
3864.00,0.0024
3863.00,0.0024
3862.00,0.0024
3861.00,0.0024
3860.00,0.0024
3859.00,0.0023
3858.00,0.0021
3857.00,0.0020
3856.00,0.0019
3855.00,0.0020
3854.00,0.0021
3853.00,0.0022
3852.00,0.0023
3851.00,0.0023
3850.00,0.0023
3849.00,0.0023
3848.00,0.0023
3847.00,0.0023
3846.00,0.0023
3845.00,0.0022
3844.00,0.0022
3843.00,0.0022
3842.00,0.0023
3841.00,0.0024
3840.00,0.0024
3839.00,0.0024
3838.00,0.0024
3837.00,0.0024
3836.00,0.0023
3835.00,0.0024
3834.00,0.0024
3833.00,0.0024
3832.00,0.0024
3831.00,0.0024
3830.00,0.0024
3829.00,0.0023
3828.00,0.0023
3827.00,0.0022
3826.00,0.0022
3825.00,0.0023
3824.00,0.0024
3823.00,0.0024
3822.00,0.0025
3821.00,0.0024
3820.00,0.0024
3819.00,0.0025
3818.00,0.0025
3817.00,0.0025
3816.00,0.0024
3815.00,0.0022
3814.00,0.0021
3813.00,0.0021
3812.00,0.0021
3811.00,0.0021
3810.00,0.0021
3809.00,0.0021
3808.00,0.0022
3807.00,0.0023
3806.00,0.0023
3805.00,0.0024
3804.00,0.0024
3803.00,0.0024
3802.00,0.0023
3801.00,0.0023
3800.00,0.0023
3799.00,0.0023
3798.00,0.0023
3797.00,0.0023
3796.00,0.0022
3795.00,0.0021
3794.00,0.0020
3793.00,0.0020
3792.00,0.0019
3791.00,0.0019
3790.00,0.0019
3789.00,0.0019
3788.00,0.0019
3787.00,0.0019
3786.00,0.0019
3785.00,0.0019
3784.00,0.0019
3783.00,0.0019
3782.00,0.0019
3781.00,0.0019
3780.00,0.0019
3779.00,0.0019
3778.00,0.0020
3777.00,0.0020
3776.00,0.0020
3775.00,0.0020
3774.00,0.0020
3773.00,0.0020
3772.00,0.0020
3771.00,0.0020
3770.00,0.0021
3769.00,0.0021
3768.00,0.0022
3767.00,0.0022
3766.00,0.0022
3765.00,0.0022
3764.00,0.0022
3763.00,0.0022
3762.00,0.0022
3761.00,0.0022
3760.00,0.0022
3759.00,0.0022
3758.00,0.0022
3757.00,0.0023
3756.00,0.0024
3755.00,0.0024
3754.00,0.0025
3753.00,0.0026
3752.00,0.0028
3751.00,0.0030
3750.00,0.0031
3749.00,0.0031
3748.00,0.0031
3747.00,0.0030
3746.00,0.0029
3745.00,0.0029
3744.00,0.0028
3743.00,0.0028
3742.00,0.0028
3741.00,0.0028
3740.00,0.0029
3739.00,0.0030
3738.00,0.0031
3737.00,0.0031
3736.00,0.0031
3735.00,0.0030
3734.00,0.0030
3733.00,0.0030
3732.00,0.0029
3731.00,0.0028
3730.00,0.0026
3729.00,0.0026
3728.00,0.0026
3727.00,0.0025
3726.00,0.0025
3725.00,0.0024
3724.00,0.0024
3723.00,0.0023
3722.00,0.0023
3721.00,0.0023
3720.00,0.0022
3719.00,0.0022
3718.00,0.0021
3717.00,0.0021
3716.00,0.0022
3715.00,0.0022
3714.00,0.0023
3713.00,0.0023
3712.00,0.0023
3711.00,0.0024
3710.00,0.0023
3709.00,0.0023
3708.00,0.0023
3707.00,0.0022
3706.00,0.0021
3705.00,0.0020
3704.00,0.0020
3703.00,0.0020
3702.00,0.0019
3701.00,0.0019
3700.00,0.0019
3699.00,0.0019
3698.00,0.0020
3697.00,0.0020
3696.00,0.0020
3695.00,0.0021
3694.00,0.0021
3693.00,0.0022
3692.00,0.0021
3691.00,0.0021
3690.00,0.0021
3689.00,0.0023
3688.00,0.0024
3687.00,0.0023
3686.00,0.0023
3685.00,0.0022
3684.00,0.0022
3683.00,0.0022
3682.00,0.0022
3681.00,0.0022
3680.00,0.0021
3679.00,0.0022
3678.00,0.0022
3677.00,0.0024
3676.00,0.0024
3675.00,0.0025
3674.00,0.0026
3673.00,0.0027
3672.00,0.0028
3671.00,0.0028
3670.00,0.0027
3669.00,0.0025
3668.00,0.0024
3667.00,0.0023
3666.00,0.0022
3665.00,0.0021
3664.00,0.0021
3663.00,0.0020
3662.00,0.0020
3661.00,0.0020
3660.00,0.0021
3659.00,0.0021
3658.00,0.0022
3657.00,0.0023
3656.00,0.0023
3655.00,0.0024
3654.00,0.0024
3653.00,0.0026
3652.00,0.0027
3651.00,0.0028
3650.00,0.0029
3649.00,0.0030
3648.00,0.0030
3647.00,0.0029
3646.00,0.0027
3645.00,0.0026
3644.00,0.0025
3643.00,0.0024
3642.00,0.0023
3641.00,0.0022
3640.00,0.0022
3639.00,0.0022
3638.00,0.0022
3637.00,0.0022
3636.00,0.0022
3635.00,0.0022
3634.00,0.0023
3633.00,0.0023
3632.00,0.0024
3631.00,0.0026
3630.00,0.0027
3629.00,0.0028
3628.00,0.0028
3627.00,0.0028
3626.00,0.0027
3625.00,0.0027
3624.00,0.0026
3623.00,0.0026
3622.00,0.0025
3621.00,0.0025
3620.00,0.0025
3619.00,0.0025
3618.00,0.0026
3617.00,0.0027
3616.00,0.0028
3615.00,0.0028
3614.00,0.0029
3613.00,0.0029
3612.00,0.0030
3611.00,0.0030
3610.00,0.0031
3609.00,0.0030
3608.00,0.0028
3607.00,0.0027
3606.00,0.0026
3605.00,0.0025
3604.00,0.0025
3603.00,0.0025
3602.00,0.0025
3601.00,0.0024
3600.00,0.0025
3599.00,0.0025
3598.00,0.0025
3597.00,0.0025
3596.00,0.0025
3595.00,0.0026
3594.00,0.0026
3593.00,0.0026
3592.00,0.0027
3591.00,0.0028
3590.00,0.0028
3589.00,0.0028
3588.00,0.0027
3587.00,0.0027
3586.00,0.0026
3585.00,0.0026
3584.00,0.0026
3583.00,0.0026
3582.00,0.0025
3581.00,0.0025
3580.00,0.0024
3579.00,0.0024
3578.00,0.0024
3577.00,0.0024
3576.00,0.0024
3575.00,0.0024
3574.00,0.0024
3573.00,0.0025
3572.00,0.0026
3571.00,0.0026
3570.00,0.0027
3569.00,0.0028
3568.00,0.0029
3567.00,0.0029
3566.00,0.0029
3565.00,0.0029
3564.00,0.0029
3563.00,0.0029
3562.00,0.0028
3561.00,0.0028
3560.00,0.0027
3559.00,0.0026
3558.00,0.0026
3557.00,0.0026
3556.00,0.0026
3555.00,0.0026
3554.00,0.0026
3553.00,0.0026
3552.00,0.0027
3551.00,0.0027
3550.00,0.0028
3549.00,0.0029
3548.00,0.0029
3547.00,0.0030
3546.00,0.0030
3545.00,0.0029
3544.00,0.0029
3543.00,0.0028
3542.00,0.0028
3541.00,0.0028
3540.00,0.0028
3539.00,0.0028
3538.00,0.0028
3537.00,0.0028
3536.00,0.0028
3535.00,0.0028
3534.00,0.0029
3533.00,0.0029
3532.00,0.0029
3531.00,0.0029
3530.00,0.0029
3529.00,0.0029
3528.00,0.0029
3527.00,0.0030
3526.00,0.0030
3525.00,0.0030
3524.00,0.0030
3523.00,0.0030
3522.00,0.0030
3521.00,0.0030
3520.00,0.0029
3519.00,0.0029
3518.00,0.0029
3517.00,0.0029
3516.00,0.0029
3515.00,0.0029
3514.00,0.0030
3513.00,0.0030
3512.00,0.0030
3511.00,0.0030
3510.00,0.0030
3509.00,0.0030
3508.00,0.0030
3507.00,0.0031
3506.00,0.0030
3505.00,0.0030
3504.00,0.0030
3503.00,0.0030
3502.00,0.0030
3501.00,0.0030
3500.00,0.0030
3499.00,0.0030
3498.00,0.0030
3497.00,0.0030
3496.00,0.0030
3495.00,0.0030
3494.00,0.0031
3493.00,0.0031
3492.00,0.0031
3491.00,0.0031
3490.00,0.0031
3489.00,0.0032
3488.00,0.0032
3487.00,0.0032
3486.00,0.0032
3485.00,0.0031
3484.00,0.0031
3483.00,0.0031
3482.00,0.0031
3481.00,0.0031
3480.00,0.0032
3479.00,0.0032
3478.00,0.0032
3477.00,0.0032
3476.00,0.0032
3475.00,0.0032
3474.00,0.0032
3473.00,0.0032
3472.00,0.0032
3471.00,0.0032
3470.00,0.0032
3469.00,0.0032
3468.00,0.0032
3467.00,0.0031
3466.00,0.0032
3465.00,0.0032
3464.00,0.0032
3463.00,0.0032
3462.00,0.0032
3461.00,0.0032
3460.00,0.0032
3459.00,0.0032
3458.00,0.0031
3457.00,0.0031
3456.00,0.0031
3455.00,0.0032
3454.00,0.0032
3453.00,0.0032
3452.00,0.0032
3451.00,0.0032
3450.00,0.0032
3449.00,0.0032
3448.00,0.0032
3447.00,0.0032
3446.00,0.0033
3445.00,0.0033
3444.00,0.0033
3443.00,0.0034
3442.00,0.0034
3441.00,0.0034
3440.00,0.0034
3439.00,0.0034
3438.00,0.0034
3437.00,0.0034
3436.00,0.0034
3435.00,0.0034
3434.00,0.0033
3433.00,0.0033
3432.00,0.0033
3431.00,0.0033
3430.00,0.0032
3429.00,0.0032
3428.00,0.0032
3427.00,0.0032
3426.00,0.0033
3425.00,0.0033
3424.00,0.0033
3423.00,0.0033
3422.00,0.0033
3421.00,0.0033
3420.00,0.0033
3419.00,0.0033
3418.00,0.0033
3417.00,0.0033
3416.00,0.0033
3415.00,0.0033
3414.00,0.0033
3413.00,0.0033
3412.00,0.0033
3411.00,0.0033
3410.00,0.0033
3409.00,0.0033
3408.00,0.0033
3407.00,0.0033
3406.00,0.0033
3405.00,0.0033
3404.00,0.0033
3403.00,0.0034
3402.00,0.0034
3401.00,0.0034
3400.00,0.0034
3399.00,0.0033
3398.00,0.0033
3397.00,0.0034
3396.00,0.0034
3395.00,0.0034
3394.00,0.0034
3393.00,0.0034
3392.00,0.0034
3391.00,0.0034
3390.00,0.0033
3389.00,0.0033
3388.00,0.0033
3387.00,0.0034
3386.00,0.0034
3385.00,0.0034
3384.00,0.0034
3383.00,0.0034
3382.00,0.0034
3381.00,0.0034
3380.00,0.0033
3379.00,0.0033
3378.00,0.0033
3377.00,0.0033
3376.00,0.0033
3375.00,0.0033
3374.00,0.0033
3373.00,0.0033
3372.00,0.0033
3371.00,0.0033
3370.00,0.0034
3369.00,0.0034
3368.00,0.0034
3367.00,0.0033
3366.00,0.0033
3365.00,0.0033
3364.00,0.0033
3363.00,0.0033
3362.00,0.0033
3361.00,0.0033
3360.00,0.0033
3359.00,0.0033
3358.00,0.0033
3357.00,0.0033
3356.00,0.0033
3355.00,0.0033
3354.00,0.0032
3353.00,0.0032
3352.00,0.0032
3351.00,0.0032
3350.00,0.0032
3349.00,0.0032
3348.00,0.0032
3347.00,0.0032
3346.00,0.0032
3345.00,0.0032
3344.00,0.0032
3343.00,0.0032
3342.00,0.0032
3341.00,0.0032
3340.00,0.0032
3339.00,0.0032
3338.00,0.0032
3337.00,0.0031
3336.00,0.0031
3335.00,0.0031
3334.00,0.0031
3333.00,0.0031
3332.00,0.0031
3331.00,0.0030
3330.00,0.0030
3329.00,0.0031
3328.00,0.0031
3327.00,0.0031
3326.00,0.0031
3325.00,0.0031
3324.00,0.0031
3323.00,0.0031
3322.00,0.0031
3321.00,0.0030
3320.00,0.0030
3319.00,0.0030
3318.00,0.0030
3317.00,0.0030
3316.00,0.0030
3315.00,0.0030
3314.00,0.0030
3313.00,0.0030
3312.00,0.0031
3311.00,0.0031
3310.00,0.0031
3309.00,0.0031
3308.00,0.0031
3307.00,0.0031
3306.00,0.0031
3305.00,0.0030
3304.00,0.0030
3303.00,0.0030
3302.00,0.0030
3301.00,0.0030
3300.00,0.0030
3299.00,0.0030
3298.00,0.0030
3297.00,0.0030
3296.00,0.0030
3295.00,0.0030
3294.00,0.0030
3293.00,0.0030
3292.00,0.0030
3291.00,0.0030
3290.00,0.0030
3289.00,0.0030
3288.00,0.0030
3287.00,0.0030
3286.00,0.0030
3285.00,0.0030
3284.00,0.0029
3283.00,0.0029
3282.00,0.0029
3281.00,0.0029
3280.00,0.0029
3279.00,0.0029
3278.00,0.0029
3277.00,0.0029
3276.00,0.0029
3275.00,0.0030
3274.00,0.0030
3273.00,0.0030
3272.00,0.0030
3271.00,0.0029
3270.00,0.0029
3269.00,0.0029
3268.00,0.0029
3267.00,0.0029
3266.00,0.0029
3265.00,0.0029
3264.00,0.0029
3263.00,0.0029
3262.00,0.0029
3261.00,0.0028
3260.00,0.0029
3259.00,0.0029
3258.00,0.0029
3257.00,0.0029
3256.00,0.0028
3255.00,0.0028
3254.00,0.0028
3253.00,0.0028
3252.00,0.0028
3251.00,0.0028
3250.00,0.0028
3249.00,0.0028
3248.00,0.0029
3247.00,0.0029
3246.00,0.0029
3245.00,0.0029
3244.00,0.0028
3243.00,0.0028
3242.00,0.0028
3241.00,0.0028
3240.00,0.0028
3239.00,0.0028
3238.00,0.0028
3237.00,0.0027
3236.00,0.0027
3235.00,0.0028
3234.00,0.0028
3233.00,0.0028
3232.00,0.0028
3231.00,0.0028
3230.00,0.0028
3229.00,0.0027
3228.00,0.0027
3227.00,0.0027
3226.00,0.0027
3225.00,0.0027
3224.00,0.0027
3223.00,0.0027
3222.00,0.0027
3221.00,0.0027
3220.00,0.0027
3219.00,0.0027
3218.00,0.0027
3217.00,0.0027
3216.00,0.0027
3215.00,0.0027
3214.00,0.0027
3213.00,0.0027
3212.00,0.0027
3211.00,0.0027
3210.00,0.0027
3209.00,0.0027
3208.00,0.0027
3207.00,0.0027
3206.00,0.0027
3205.00,0.0026
3204.00,0.0026
3203.00,0.0026
3202.00,0.0026
3201.00,0.0026
3200.00,0.0026
3199.00,0.0026
3198.00,0.0026
3197.00,0.0026
3196.00,0.0026
3195.00,0.0026
3194.00,0.0026
3193.00,0.0026
3192.00,0.0026
3191.00,0.0026
3190.00,0.0026
3189.00,0.0026
3188.00,0.0025
3187.00,0.0025
3186.00,0.0025
3185.00,0.0025
3184.00,0.0025
3183.00,0.0025
3182.00,0.0025
3181.00,0.0025
3180.00,0.0025
3179.00,0.0025
3178.00,0.0025
3177.00,0.0025
3176.00,0.0025
3175.00,0.0025
3174.00,0.0025
3173.00,0.0025
3172.00,0.0025
3171.00,0.0025
3170.00,0.0025
3169.00,0.0025
3168.00,0.0025
3167.00,0.0025
3166.00,0.0025
3165.00,0.0025
3164.00,0.0025
3163.00,0.0025
3162.00,0.0025
3161.00,0.0025
3160.00,0.0025
3159.00,0.0025
3158.00,0.0025
3157.00,0.0025
3156.00,0.0025
3155.00,0.0025
3154.00,0.0025
3153.00,0.0025
3152.00,0.0024
3151.00,0.0024
3150.00,0.0024
3149.00,0.0024
3148.00,0.0024
3147.00,0.0024
3146.00,0.0024
3145.00,0.0024
3144.00,0.0023
3143.00,0.0023
3142.00,0.0023
3141.00,0.0023
3140.00,0.0024
3139.00,0.0024
3138.00,0.0024
3137.00,0.0024
3136.00,0.0023
3135.00,0.0023
3134.00,0.0023
3133.00,0.0023
3132.00,0.0023
3131.00,0.0023
3130.00,0.0023
3129.00,0.0023
3128.00,0.0023
3127.00,0.0023
3126.00,0.0023
3125.00,0.0024
3124.00,0.0024
3123.00,0.0024
3122.00,0.0024
3121.00,0.0024
3120.00,0.0025
3119.00,0.0025
3118.00,0.0025
3117.00,0.0025
3116.00,0.0026
3115.00,0.0026
3114.00,0.0027
3113.00,0.0027
3112.00,0.0028
3111.00,0.0028
3110.00,0.0029
3109.00,0.0031
3108.00,0.0032
3107.00,0.0033
3106.00,0.0034
3105.00,0.0035
3104.00,0.0036
3103.00,0.0036
3102.00,0.0036
3101.00,0.0036
3100.00,0.0036
3099.00,0.0035
3098.00,0.0035
3097.00,0.0035
3096.00,0.0034
3095.00,0.0035
3094.00,0.0035
3093.00,0.0036
3092.00,0.0038
3091.00,0.0040
3090.00,0.0043
3089.00,0.0046
3088.00,0.0050
3087.00,0.0054
3086.00,0.0058
3085.00,0.0062
3084.00,0.0065
3083.00,0.0067
3082.00,0.0068
3081.00,0.0067
3080.00,0.0065
3079.00,0.0063
3078.00,0.0060
3077.00,0.0058
3076.00,0.0055
3075.00,0.0054
3074.00,0.0053
3073.00,0.0052
3072.00,0.0052
3071.00,0.0053
3070.00,0.0055
3069.00,0.0057
3068.00,0.0060
3067.00,0.0063
3066.00,0.0066
3065.00,0.0070
3064.00,0.0074
3063.00,0.0079
3062.00,0.0082
3061.00,0.0085
3060.00,0.0086
3059.00,0.0086
3058.00,0.0085
3057.00,0.0082
3056.00,0.0079
3055.00,0.0074
3054.00,0.0070
3053.00,0.0066
3052.00,0.0063
3051.00,0.0060
3050.00,0.0057
3049.00,0.0055
3048.00,0.0053
3047.00,0.0052
3046.00,0.0051
3045.00,0.0050
3044.00,0.0050
3043.00,0.0051
3042.00,0.0052
3041.00,0.0054
3040.00,0.0056
3039.00,0.0058
3038.00,0.0061
3037.00,0.0066
3036.00,0.0070
3035.00,0.0076
3034.00,0.0083
3033.00,0.0091
3032.00,0.0100
3031.00,0.0110
3030.00,0.0121
3029.00,0.0131
3028.00,0.0140
3027.00,0.0148
3026.00,0.0153
3025.00,0.0154
3024.00,0.0152
3023.00,0.0147
3022.00,0.0138
3021.00,0.0127
3020.00,0.0115
3019.00,0.0102
3018.00,0.0091
3017.00,0.0081
3016.00,0.0072
3015.00,0.0065
3014.00,0.0060
3013.00,0.0056
3012.00,0.0052
3011.00,0.0050
3010.00,0.0048
3009.00,0.0047
3008.00,0.0047
3007.00,0.0047
3006.00,0.0048
3005.00,0.0049
3004.00,0.0050
3003.00,0.0051
3002.00,0.0052
3001.00,0.0052
3000.00,0.0052
2999.00,0.0050
2998.00,0.0048
2997.00,0.0046
2996.00,0.0043
2995.00,0.0041
2994.00,0.0039
2993.00,0.0037
2992.00,0.0035
2991.00,0.0034
2990.00,0.0033
2989.00,0.0032
2988.00,0.0032
2987.00,0.0032
2986.00,0.0032
2985.00,0.0032
2984.00,0.0032
2983.00,0.0032
2982.00,0.0032
2981.00,0.0032
2980.00,0.0032
2979.00,0.0032
2978.00,0.0033
2977.00,0.0033
2976.00,0.0033
2975.00,0.0033
2974.00,0.0034
2973.00,0.0034
2972.00,0.0034
2971.00,0.0035
2970.00,0.0036
2969.00,0.0036
2968.00,0.0037
2967.00,0.0038
2966.00,0.0039
2965.00,0.0040
2964.00,0.0041
2963.00,0.0042
2962.00,0.0043
2961.00,0.0044
2960.00,0.0045
2959.00,0.0046
2958.00,0.0047
2957.00,0.0049
2956.00,0.0050
2955.00,0.0052
2954.00,0.0054
2953.00,0.0056
2952.00,0.0058
2951.00,0.0060
2950.00,0.0063
2949.00,0.0065
2948.00,0.0068
2947.00,0.0072
2946.00,0.0075
2945.00,0.0079
2944.00,0.0083
2943.00,0.0086
2942.00,0.0091
2941.00,0.0095
2940.00,0.0100
2939.00,0.0105
2938.00,0.0111
2937.00,0.0116
2936.00,0.0122
2935.00,0.0128
2934.00,0.0135
2933.00,0.0141
2932.00,0.0148
2931.00,0.0154
2930.00,0.0160
2929.00,0.0165
2928.00,0.0170
2927.00,0.0174
2926.00,0.0178
2925.00,0.0181
2924.00,0.0184
2923.00,0.0186
2922.00,0.0186
2921.00,0.0186
2920.00,0.0186
2919.00,0.0185
2918.00,0.0183
2917.00,0.0181
2916.00,0.0178
2915.00,0.0175
2914.00,0.0171
2913.00,0.0167
2912.00,0.0163
2911.00,0.0159
2910.00,0.0154
2909.00,0.0150
2908.00,0.0145
2907.00,0.0141
2906.00,0.0136
2905.00,0.0132
2904.00,0.0128
2903.00,0.0123
2902.00,0.0119
2901.00,0.0114
2900.00,0.0110
2899.00,0.0106
2898.00,0.0102
2897.00,0.0098
2896.00,0.0094
2895.00,0.0091
2894.00,0.0088
2893.00,0.0086
2892.00,0.0083
2891.00,0.0081
2890.00,0.0079
2889.00,0.0077
2888.00,0.0075
2887.00,0.0074
2886.00,0.0072
2885.00,0.0071
2884.00,0.0070
2883.00,0.0068
2882.00,0.0067
2881.00,0.0066
2880.00,0.0064
2879.00,0.0063
2878.00,0.0062
2877.00,0.0061
2876.00,0.0060
2875.00,0.0059
2874.00,0.0059
2873.00,0.0058
2872.00,0.0057
2871.00,0.0056
2870.00,0.0056
2869.00,0.0056
2868.00,0.0056
2867.00,0.0056
2866.00,0.0057
2865.00,0.0058
2864.00,0.0059
2863.00,0.0061
2862.00,0.0062
2861.00,0.0064
2860.00,0.0066
2859.00,0.0069
2858.00,0.0072
2857.00,0.0074
2856.00,0.0077
2855.00,0.0079
2854.00,0.0081
2853.00,0.0083
2852.00,0.0085
2851.00,0.0087
2850.00,0.0088
2849.00,0.0088
2848.00,0.0088
2847.00,0.0086
2846.00,0.0084
2845.00,0.0081
2844.00,0.0078
2843.00,0.0074
2842.00,0.0070
2841.00,0.0066
2840.00,0.0061
2839.00,0.0056
2838.00,0.0052
2837.00,0.0048
2836.00,0.0044
2835.00,0.0041
2834.00,0.0039
2833.00,0.0037
2832.00,0.0035
2831.00,0.0034
2830.00,0.0033
2829.00,0.0032
2828.00,0.0031
2827.00,0.0030
2826.00,0.0030
2825.00,0.0029
2824.00,0.0029
2823.00,0.0028
2822.00,0.0028
2821.00,0.0027
2820.00,0.0027
2819.00,0.0027
2818.00,0.0027
2817.00,0.0026
2816.00,0.0026
2815.00,0.0026
2814.00,0.0026
2813.00,0.0026
2812.00,0.0026
2811.00,0.0026
2810.00,0.0026
2809.00,0.0026
2808.00,0.0025
2807.00,0.0025
2806.00,0.0025
2805.00,0.0025
2804.00,0.0025
2803.00,0.0025
2802.00,0.0025
2801.00,0.0025
2800.00,0.0025
2799.00,0.0024
2798.00,0.0024
2797.00,0.0024
2796.00,0.0024
2795.00,0.0024
2794.00,0.0023
2793.00,0.0023
2792.00,0.0023
2791.00,0.0023
2790.00,0.0023
2789.00,0.0023
2788.00,0.0023
2787.00,0.0022
2786.00,0.0022
2785.00,0.0022
2784.00,0.0022
2783.00,0.0023
2782.00,0.0023
2781.00,0.0023
2780.00,0.0023
2779.00,0.0023
2778.00,0.0023
2777.00,0.0022
2776.00,0.0022
2775.00,0.0022
2774.00,0.0022
2773.00,0.0022
2772.00,0.0022
2771.00,0.0022
2770.00,0.0021
2769.00,0.0021
2768.00,0.0021
2767.00,0.0021
2766.00,0.0021
2765.00,0.0021
2764.00,0.0021
2763.00,0.0021
2762.00,0.0021
2761.00,0.0021
2760.00,0.0021
2759.00,0.0021
2758.00,0.0021
2757.00,0.0021
2756.00,0.0021
2755.00,0.0020
2754.00,0.0020
2753.00,0.0020
2752.00,0.0020
2751.00,0.0020
2750.00,0.0020
2749.00,0.0020
2748.00,0.0021
2747.00,0.0021
2746.00,0.0021
2745.00,0.0020
2744.00,0.0020
2743.00,0.0020
2742.00,0.0020
2741.00,0.0020
2740.00,0.0020
2739.00,0.0020
2738.00,0.0021
2737.00,0.0021
2736.00,0.0021
2735.00,0.0021
2734.00,0.0020
2733.00,0.0020
2732.00,0.0020
2731.00,0.0020
2730.00,0.0020
2729.00,0.0020
2728.00,0.0020
2727.00,0.0020
2726.00,0.0020
2725.00,0.0020
2724.00,0.0020
2723.00,0.0020
2722.00,0.0020
2721.00,0.0020
2720.00,0.0020
2719.00,0.0020
2718.00,0.0020
2717.00,0.0020
2716.00,0.0020
2715.00,0.0020
2714.00,0.0020
2713.00,0.0020
2712.00,0.0020
2711.00,0.0020
2710.00,0.0020
2709.00,0.0020
2708.00,0.0020
2707.00,0.0020
2706.00,0.0020
2705.00,0.0020
2704.00,0.0020
2703.00,0.0020
2702.00,0.0020
2701.00,0.0020
2700.00,0.0020
2699.00,0.0020
2698.00,0.0020
2697.00,0.0020
2696.00,0.0020
2695.00,0.0020
2694.00,0.0020
2693.00,0.0020
2692.00,0.0020
2691.00,0.0020
2690.00,0.0020
2689.00,0.0020
2688.00,0.0020
2687.00,0.0020
2686.00,0.0020
2685.00,0.0020
2684.00,0.0020
2683.00,0.0020
2682.00,0.0020
2681.00,0.0020
2680.00,0.0020
2679.00,0.0020
2678.00,0.0020
2677.00,0.0020
2676.00,0.0020
2675.00,0.0020
2674.00,0.0020
2673.00,0.0020
2672.00,0.0020
2671.00,0.0020
2670.00,0.0020
2669.00,0.0020
2668.00,0.0020
2667.00,0.0020
2666.00,0.0020
2665.00,0.0020
2664.00,0.0021
2663.00,0.0021
2662.00,0.0021
2661.00,0.0022
2660.00,0.0022
2659.00,0.0022
2658.00,0.0022
2657.00,0.0022
2656.00,0.0022
2655.00,0.0023
2654.00,0.0023
2653.00,0.0023
2652.00,0.0023
2651.00,0.0023
2650.00,0.0023
2649.00,0.0023
2648.00,0.0023
2647.00,0.0023
2646.00,0.0023
2645.00,0.0022
2644.00,0.0022
2643.00,0.0022
2642.00,0.0022
2641.00,0.0023
2640.00,0.0023
2639.00,0.0023
2638.00,0.0023
2637.00,0.0023
2636.00,0.0023
2635.00,0.0023
2634.00,0.0023
2633.00,0.0023
2632.00,0.0023
2631.00,0.0023
2630.00,0.0023
2629.00,0.0022
2628.00,0.0022
2627.00,0.0022
2626.00,0.0022
2625.00,0.0022
2624.00,0.0022
2623.00,0.0022
2622.00,0.0021
2621.00,0.0021
2620.00,0.0021
2619.00,0.0021
2618.00,0.0021
2617.00,0.0021
2616.00,0.0021
2615.00,0.0021
2614.00,0.0021
2613.00,0.0021
2612.00,0.0020
2611.00,0.0020
2610.00,0.0020
2609.00,0.0021
2608.00,0.0021
2607.00,0.0021
2606.00,0.0021
2605.00,0.0021
2604.00,0.0020
2603.00,0.0020
2602.00,0.0020
2601.00,0.0020
2600.00,0.0019
2599.00,0.0020
2598.00,0.0020
2597.00,0.0020
2596.00,0.0020
2595.00,0.0019
2594.00,0.0019
2593.00,0.0019
2592.00,0.0018
2591.00,0.0018
2590.00,0.0019
2589.00,0.0019
2588.00,0.0019
2587.00,0.0019
2586.00,0.0018
2585.00,0.0018
2584.00,0.0019
2583.00,0.0019
2582.00,0.0018
2581.00,0.0018
2580.00,0.0018
2579.00,0.0017
2578.00,0.0017
2577.00,0.0017
2576.00,0.0017
2575.00,0.0018
2574.00,0.0018
2573.00,0.0018
2572.00,0.0017
2571.00,0.0017
2570.00,0.0017
2569.00,0.0017
2568.00,0.0016
2567.00,0.0016
2566.00,0.0016
2565.00,0.0016
2564.00,0.0016
2563.00,0.0017
2562.00,0.0017
2561.00,0.0017
2560.00,0.0017
2559.00,0.0017
2558.00,0.0017
2557.00,0.0016
2556.00,0.0016
2555.00,0.0016
2554.00,0.0016
2553.00,0.0017
2552.00,0.0017
2551.00,0.0017
2550.00,0.0017
2549.00,0.0017
2548.00,0.0016
2547.00,0.0016
2546.00,0.0016
2545.00,0.0016
2544.00,0.0015
2543.00,0.0015
2542.00,0.0015
2541.00,0.0015
2540.00,0.0015
2539.00,0.0015
2538.00,0.0015
2537.00,0.0015
2536.00,0.0015
2535.00,0.0015
2534.00,0.0015
2533.00,0.0015
2532.00,0.0015
2531.00,0.0015
2530.00,0.0015
2529.00,0.0015
2528.00,0.0015
2527.00,0.0015
2526.00,0.0015
2525.00,0.0015
2524.00,0.0014
2523.00,0.0014
2522.00,0.0014
2521.00,0.0014
2520.00,0.0015
2519.00,0.0015
2518.00,0.0015
2517.00,0.0015
2516.00,0.0015
2515.00,0.0015
2514.00,0.0015
2513.00,0.0016
2512.00,0.0015
2511.00,0.0015
2510.00,0.0015
2509.00,0.0014
2508.00,0.0014
2507.00,0.0014
2506.00,0.0014
2505.00,0.0014
2504.00,0.0014
2503.00,0.0014
2502.00,0.0014
2501.00,0.0014
2500.00,0.0015
2499.00,0.0015
2498.00,0.0015
2497.00,0.0015
2496.00,0.0014
2495.00,0.0014
2494.00,0.0014
2493.00,0.0014
2492.00,0.0014
2491.00,0.0014
2490.00,0.0013
2489.00,0.0013
2488.00,0.0013
2487.00,0.0014
2486.00,0.0014
2485.00,0.0015
2484.00,0.0015
2483.00,0.0015
2482.00,0.0014
2481.00,0.0014
2480.00,0.0013
2479.00,0.0013
2478.00,0.0012
2477.00,0.0012
2476.00,0.0013
2475.00,0.0013
2474.00,0.0013
2473.00,0.0013
2472.00,0.0013
2471.00,0.0013
2470.00,0.0013
2469.00,0.0013
2468.00,0.0013
2467.00,0.0013
2466.00,0.0013
2465.00,0.0013
2464.00,0.0013
2463.00,0.0013
2462.00,0.0013
2461.00,0.0013
2460.00,0.0013
2459.00,0.0013
2458.00,0.0013
2457.00,0.0013
2456.00,0.0014
2455.00,0.0014
2454.00,0.0014
2453.00,0.0014
2452.00,0.0014
2451.00,0.0014
2450.00,0.0014
2449.00,0.0014
2448.00,0.0014
2447.00,0.0014
2446.00,0.0013
2445.00,0.0013
2444.00,0.0013
2443.00,0.0012
2442.00,0.0012
2441.00,0.0012
2440.00,0.0012
2439.00,0.0012
2438.00,0.0012
2437.00,0.0012
2436.00,0.0012
2435.00,0.0012
2434.00,0.0012
2433.00,0.0012
2432.00,0.0011
2431.00,0.0011
2430.00,0.0011
2429.00,0.0011
2428.00,0.0011
2427.00,0.0011
2426.00,0.0011
2425.00,0.0011
2424.00,0.0011
2423.00,0.0011
2422.00,0.0011
2421.00,0.0011
2420.00,0.0011
2419.00,0.0011
2418.00,0.0011
2417.00,0.0011
2416.00,0.0011
2415.00,0.0011
2414.00,0.0011
2413.00,0.0011
2412.00,0.0011
2411.00,0.0011
2410.00,0.0010
2409.00,0.0010
2408.00,0.0009
2407.00,0.0009
2406.00,0.0009
2405.00,0.0009
2404.00,0.0009
2403.00,0.0009
2402.00,0.0009
2401.00,0.0009
2400.00,0.0009
2399.00,0.0009
2398.00,0.0009
2397.00,0.0009
2396.00,0.0009
2395.00,0.0009
2394.00,0.0009
2393.00,0.0010
2392.00,0.0010
2391.00,0.0010
2390.00,0.0010
2389.00,0.0010
2388.00,0.0010
2387.00,0.0010
2386.00,0.0010
2385.00,0.0010
2384.00,0.0009
2383.00,0.0009
2382.00,0.0009
2381.00,0.0009
2380.00,0.0009
2379.00,0.0009
2378.00,0.0009
2377.00,0.0009
2376.00,0.0009
2375.00,0.0009
2374.00,0.0009
2373.00,0.0008
2372.00,0.0008
2371.00,0.0008
2370.00,0.0008
2369.00,0.0008
2368.00,0.0008
2367.00,0.0009
2366.00,0.0010
2365.00,0.0011
2364.00,0.0011
2363.00,0.0011
2362.00,0.0011
2361.00,0.0011
2360.00,0.0011
2359.00,0.0011
2358.00,0.0010
2357.00,0.0010
2356.00,0.0010
2355.00,0.0011
2354.00,0.0011
2353.00,0.0011
2352.00,0.0011
2351.00,0.0011
2350.00,0.0012
2349.00,0.0012
2348.00,0.0013
2347.00,0.0014
2346.00,0.0015
2345.00,0.0015
2344.00,0.0014
2343.00,0.0013
2342.00,0.0013
2341.00,0.0013
2340.00,0.0014
2339.00,0.0014
2338.00,0.0015
2337.00,0.0015
2336.00,0.0015
2335.00,0.0015
2334.00,0.0014
2333.00,0.0014
2332.00,0.0014
2331.00,0.0014
2330.00,0.0014
2329.00,0.0015
2328.00,0.0017
2327.00,0.0020
2326.00,0.0022
2325.00,0.0023
2324.00,0.0022
2323.00,0.0021
2322.00,0.0020
2321.00,0.0019
2320.00,0.0018
2319.00,0.0017
2318.00,0.0017
2317.00,0.0016
2316.00,0.0017
2315.00,0.0017
2314.00,0.0017
2313.00,0.0017
2312.00,0.0017
2311.00,0.0018
2310.00,0.0017
2309.00,0.0017
2308.00,0.0017
2307.00,0.0017
2306.00,0.0017
2305.00,0.0016
2304.00,0.0016
2303.00,0.0016
2302.00,0.0016
2301.00,0.0016
2300.00,0.0017
2299.00,0.0017
2298.00,0.0017
2297.00,0.0017
2296.00,0.0017
2295.00,0.0018
2294.00,0.0018
2293.00,0.0018
2292.00,0.0018
2291.00,0.0019
2290.00,0.0019
2289.00,0.0020
2288.00,0.0020
2287.00,0.0020
2286.00,0.0020
2285.00,0.0019
2284.00,0.0019
2283.00,0.0018
2282.00,0.0018
2281.00,0.0017
2280.00,0.0016
2279.00,0.0016
2278.00,0.0015
2277.00,0.0016
2276.00,0.0016
2275.00,0.0015
2274.00,0.0015
2273.00,0.0014
2272.00,0.0014
2271.00,0.0014
2270.00,0.0014
2269.00,0.0014
2268.00,0.0013
2267.00,0.0013
2266.00,0.0013
2265.00,0.0013
2264.00,0.0013
2263.00,0.0013
2262.00,0.0014
2261.00,0.0015
2260.00,0.0015
2259.00,0.0014
2258.00,0.0014
2257.00,0.0012
2256.00,0.0011
2255.00,0.0010
2254.00,0.0010
2253.00,0.0011
2252.00,0.0011
2251.00,0.0012
2250.00,0.0012
2249.00,0.0012
2248.00,0.0012
2247.00,0.0011
2246.00,0.0011
2245.00,0.0010
2244.00,0.0010
2243.00,0.0009
2242.00,0.0009
2241.00,0.0009
2240.00,0.0010
2239.00,0.0010
2238.00,0.0010
2237.00,0.0009
2236.00,0.0009
2235.00,0.0009
2234.00,0.0010
2233.00,0.0011
2232.00,0.0010
2231.00,0.0010
2230.00,0.0009
2229.00,0.0009
2228.00,0.0010
2227.00,0.0010
2226.00,0.0010
2225.00,0.0010
2224.00,0.0010
2223.00,0.0010
2222.00,0.0011
2221.00,0.0011
2220.00,0.0012
2219.00,0.0012
2218.00,0.0012
2217.00,0.0012
2216.00,0.0011
2215.00,0.0010
2214.00,0.0010
2213.00,0.0011
2212.00,0.0011
2211.00,0.0011
2210.00,0.0011
2209.00,0.0012
2208.00,0.0012
2207.00,0.0011
2206.00,0.0011
2205.00,0.0010
2204.00,0.0010
2203.00,0.0009
2202.00,0.0009
2201.00,0.0009
2200.00,0.0010
2199.00,0.0011
2198.00,0.0011
2197.00,0.0012
2196.00,0.0012
2195.00,0.0011
2194.00,0.0011
2193.00,0.0011
2192.00,0.0011
2191.00,0.0011
2190.00,0.0011
2189.00,0.0010
2188.00,0.0009
2187.00,0.0009
2186.00,0.0008
2185.00,0.0007
2184.00,0.0005
2183.00,0.0003
2182.00,0.0003
2181.00,0.0004
2180.00,0.0005
2179.00,0.0006
2178.00,0.0005
2177.00,0.0004
2176.00,0.0003
2175.00,0.0003
2174.00,0.0005
2173.00,0.0008
2172.00,0.0010
2171.00,0.0013
2170.00,0.0015
2169.00,0.0016
2168.00,0.0017
2167.00,0.0016
2166.00,0.0016
2165.00,0.0016
2164.00,0.0017
2163.00,0.0019
2162.00,0.0017
2161.00,0.0011
2160.00,0.0001
2159.00,-0.0007
2158.00,-0.0011
2157.00,-0.0013
2156.00,-0.0013
2155.00,-0.0012
2154.00,-0.0010
2153.00,-0.0008
2152.00,-0.0007
2151.00,-0.0006
2150.00,-0.0006
2149.00,-0.0006
2148.00,-0.0007
2147.00,-0.0007
2146.00,-0.0008
2145.00,-0.0008
2144.00,-0.0008
2143.00,-0.0007
2142.00,-0.0006
2141.00,-0.0005
2140.00,-0.0004
2139.00,-0.0004
2138.00,-0.0004
2137.00,-0.0005
2136.00,-0.0006
2135.00,-0.0007
2134.00,-0.0007
2133.00,-0.0008
2132.00,-0.0007
2131.00,-0.0005
2130.00,-0.0003
2129.00,-0.0002
2128.00,-0.0001
2127.00,0.0000
2126.00,0.0001
2125.00,0.0002
2124.00,0.0002
2123.00,0.0002
2122.00,0.0003
2121.00,0.0003
2120.00,0.0004
2119.00,0.0005
2118.00,0.0005
2117.00,0.0006
2116.00,0.0006
2115.00,0.0007
2114.00,0.0007
2113.00,0.0007
2112.00,0.0007
2111.00,0.0007
2110.00,0.0007
2109.00,0.0006
2108.00,0.0006
2107.00,0.0006
2106.00,0.0007
2105.00,0.0007
2104.00,0.0007
2103.00,0.0007
2102.00,0.0007
2101.00,0.0007
2100.00,0.0007
2099.00,0.0007
2098.00,0.0007
2097.00,0.0005
2096.00,0.0003
2095.00,0.0002
2094.00,0.0002
2093.00,0.0002
2092.00,0.0004
2091.00,0.0005
2090.00,0.0007
2089.00,0.0008
2088.00,0.0008
2087.00,0.0008
2086.00,0.0008
2085.00,0.0008
2084.00,0.0008
2083.00,0.0009
2082.00,0.0010
2081.00,0.0010
2080.00,0.0009
2079.00,0.0009
2078.00,0.0009
2077.00,0.0010
2076.00,0.0009
2075.00,0.0009
2074.00,0.0009
2073.00,0.0009
2072.00,0.0009
2071.00,0.0010
2070.00,0.0010
2069.00,0.0009
2068.00,0.0007
2067.00,0.0006
2066.00,0.0005
2065.00,0.0005
2064.00,0.0005
2063.00,0.0006
2062.00,0.0005
2061.00,0.0005
2060.00,0.0005
2059.00,0.0006
2058.00,0.0007
2057.00,0.0007
2056.00,0.0006
2055.00,0.0006
2054.00,0.0008
2053.00,0.0011
2052.00,0.0014
2051.00,0.0015
2050.00,0.0014
2049.00,0.0011
2048.00,0.0009
2047.00,0.0007
2046.00,0.0006
2045.00,0.0006
2044.00,0.0005
2043.00,0.0005
2042.00,0.0005
2041.00,0.0006
2040.00,0.0006
2039.00,0.0006
2038.00,0.0007
2037.00,0.0008
2036.00,0.0008
2035.00,0.0008
2034.00,0.0008
2033.00,0.0007
2032.00,0.0005
2031.00,0.0002
2030.00,0.0001
2029.00,-0.0000
2028.00,0.0000
2027.00,0.0002
2026.00,0.0003
2025.00,0.0004
2024.00,0.0004
2023.00,0.0005
2022.00,0.0006
2021.00,0.0005
2020.00,0.0003
2019.00,0.0001
2018.00,0.0000
2017.00,-0.0000
2016.00,-0.0000
2015.00,-0.0000
2014.00,-0.0001
2013.00,-0.0002
2012.00,-0.0003
2011.00,-0.0003
2010.00,-0.0002
2009.00,-0.0002
2008.00,-0.0001
2007.00,-0.0002
2006.00,-0.0003
2005.00,-0.0003
2004.00,-0.0003
2003.00,-0.0002
2002.00,-0.0000
2001.00,0.0001
2000.00,0.0002
1999.00,0.0003
1998.00,0.0004
1997.00,0.0006
1996.00,0.0007
1995.00,0.0008
1994.00,0.0009
1993.00,0.0009
1992.00,0.0008
1991.00,0.0007
1990.00,0.0008
1989.00,0.0009
1988.00,0.0011
1987.00,0.0013
1986.00,0.0014
1985.00,0.0014
1984.00,0.0014
1983.00,0.0015
1982.00,0.0017
1981.00,0.0017
1980.00,0.0016
1979.00,0.0012
1978.00,0.0007
1977.00,0.0004
1976.00,0.0001
1975.00,0.0001
1974.00,0.0001
1973.00,0.0002
1972.00,0.0003
1971.00,0.0003
1970.00,0.0003
1969.00,0.0002
1968.00,0.0001
1967.00,0.0001
1966.00,0.0003
1965.00,0.0006
1964.00,0.0008
1963.00,0.0009
1962.00,0.0009
1961.00,0.0008
1960.00,0.0007
1959.00,0.0007
1958.00,0.0007
1957.00,0.0008
1956.00,0.0009
1955.00,0.0011
1954.00,0.0013
1953.00,0.0014
1952.00,0.0015
1951.00,0.0016
1950.00,0.0017
1949.00,0.0019
1948.00,0.0020
1947.00,0.0020
1946.00,0.0020
1945.00,0.0021
1944.00,0.0021
1943.00,0.0022
1942.00,0.0023
1941.00,0.0023
1940.00,0.0023
1939.00,0.0022
1938.00,0.0021
1937.00,0.0019
1936.00,0.0018
1935.00,0.0016
1934.00,0.0015
1933.00,0.0014
1932.00,0.0012
1931.00,0.0011
1930.00,0.0010
1929.00,0.0009
1928.00,0.0009
1927.00,0.0008
1926.00,0.0007
1925.00,0.0006
1924.00,0.0006
1923.00,0.0006
1922.00,0.0006
1921.00,0.0007
1920.00,0.0008
1919.00,0.0009
1918.00,0.0009
1917.00,0.0008
1916.00,0.0007
1915.00,0.0007
1914.00,0.0007
1913.00,0.0008
1912.00,0.0008
1911.00,0.0008
1910.00,0.0008
1909.00,0.0007
1908.00,0.0007
1907.00,0.0008
1906.00,0.0008
1905.00,0.0009
1904.00,0.0009
1903.00,0.0009
1902.00,0.0009
1901.00,0.0010
1900.00,0.0010
1899.00,0.0010
1898.00,0.0011
1897.00,0.0010
1896.00,0.0010
1895.00,0.0011
1894.00,0.0012
1893.00,0.0013
1892.00,0.0014
1891.00,0.0015
1890.00,0.0016
1889.00,0.0017
1888.00,0.0017
1887.00,0.0018
1886.00,0.0018
1885.00,0.0019
1884.00,0.0019
1883.00,0.0019
1882.00,0.0020
1881.00,0.0020
1880.00,0.0020
1879.00,0.0020
1878.00,0.0021
1877.00,0.0021
1876.00,0.0021
1875.00,0.0022
1874.00,0.0023
1873.00,0.0023
1872.00,0.0024
1871.00,0.0025
1870.00,0.0025
1869.00,0.0024
1868.00,0.0023
1867.00,0.0022
1866.00,0.0022
1865.00,0.0022
1864.00,0.0021
1863.00,0.0020
1862.00,0.0019
1861.00,0.0018
1860.00,0.0017
1859.00,0.0016
1858.00,0.0015
1857.00,0.0015
1856.00,0.0014
1855.00,0.0013
1854.00,0.0013
1853.00,0.0012
1852.00,0.0011
1851.00,0.0011
1850.00,0.0011
1849.00,0.0011
1848.00,0.0011
1847.00,0.0011
1846.00,0.0012
1845.00,0.0013
1844.00,0.0013
1843.00,0.0013
1842.00,0.0013
1841.00,0.0012
1840.00,0.0011
1839.00,0.0011
1838.00,0.0010
1837.00,0.0010
1836.00,0.0010
1835.00,0.0011
1834.00,0.0011
1833.00,0.0012
1832.00,0.0012
1831.00,0.0011
1830.00,0.0012
1829.00,0.0013
1828.00,0.0014
1827.00,0.0015
1826.00,0.0015
1825.00,0.0016
1824.00,0.0016
1823.00,0.0017
1822.00,0.0017
1821.00,0.0017
1820.00,0.0017
1819.00,0.0016
1818.00,0.0016
1817.00,0.0017
1816.00,0.0018
1815.00,0.0019
1814.00,0.0020
1813.00,0.0021
1812.00,0.0022
1811.00,0.0023
1810.00,0.0025
1809.00,0.0026
1808.00,0.0027
1807.00,0.0028
1806.00,0.0029
1805.00,0.0029
1804.00,0.0029
1803.00,0.0029
1802.00,0.0030
1801.00,0.0030
1800.00,0.0030
1799.00,0.0030
1798.00,0.0030
1797.00,0.0029
1796.00,0.0028
1795.00,0.0027
1794.00,0.0027
1793.00,0.0027
1792.00,0.0026
1791.00,0.0025
1790.00,0.0024
1789.00,0.0023
1788.00,0.0022
1787.00,0.0021
1786.00,0.0021
1785.00,0.0021
1784.00,0.0020
1783.00,0.0020
1782.00,0.0019
1781.00,0.0019
1780.00,0.0020
1779.00,0.0020
1778.00,0.0021
1777.00,0.0022
1776.00,0.0022
1775.00,0.0021
1774.00,0.0021
1773.00,0.0021
1772.00,0.0021
1771.00,0.0022
1770.00,0.0023
1769.00,0.0024
1768.00,0.0024
1767.00,0.0024
1766.00,0.0024
1765.00,0.0024
1764.00,0.0024
1763.00,0.0024
1762.00,0.0024
1761.00,0.0025
1760.00,0.0026
1759.00,0.0027
1758.00,0.0028
1757.00,0.0029
1756.00,0.0031
1755.00,0.0033
1754.00,0.0034
1753.00,0.0035
1752.00,0.0037
1751.00,0.0039
1750.00,0.0040
1749.00,0.0040
1748.00,0.0040
1747.00,0.0041
1746.00,0.0041
1745.00,0.0041
1744.00,0.0041
1743.00,0.0041
1742.00,0.0042
1741.00,0.0043
1740.00,0.0044
1739.00,0.0044
1738.00,0.0044
1737.00,0.0044
1736.00,0.0045
1735.00,0.0046
1734.00,0.0045
1733.00,0.0044
1732.00,0.0043
1731.00,0.0042
1730.00,0.0041
1729.00,0.0040
1728.00,0.0039
1727.00,0.0039
1726.00,0.0038
1725.00,0.0038
1724.00,0.0037
1723.00,0.0037
1722.00,0.0037
1721.00,0.0037
1720.00,0.0037
1719.00,0.0037
1718.00,0.0038
1717.00,0.0039
1716.00,0.0038
1715.00,0.0037
1714.00,0.0037
1713.00,0.0036
1712.00,0.0035
1711.00,0.0034
1710.00,0.0034
1709.00,0.0033
1708.00,0.0033
1707.00,0.0032
1706.00,0.0032
1705.00,0.0031
1704.00,0.0031
1703.00,0.0031
1702.00,0.0032
1701.00,0.0033
1700.00,0.0033
1699.00,0.0033
1698.00,0.0033
1697.00,0.0032
1696.00,0.0030
1695.00,0.0030
1694.00,0.0032
1693.00,0.0033
1692.00,0.0033
1691.00,0.0032
1690.00,0.0032
1689.00,0.0033
1688.00,0.0032
1687.00,0.0032
1686.00,0.0032
1685.00,0.0032
1684.00,0.0032
1683.00,0.0033
1682.00,0.0034
1681.00,0.0034
1680.00,0.0034
1679.00,0.0034
1678.00,0.0035
1677.00,0.0035
1676.00,0.0036
1675.00,0.0036
1674.00,0.0037
1673.00,0.0037
1672.00,0.0037
1671.00,0.0036
1670.00,0.0035
1669.00,0.0034
1668.00,0.0034
1667.00,0.0034
1666.00,0.0035
1665.00,0.0035
1664.00,0.0035
1663.00,0.0035
1662.00,0.0034
1661.00,0.0034
1660.00,0.0034
1659.00,0.0034
1658.00,0.0033
1657.00,0.0032
1656.00,0.0030
1655.00,0.0028
1654.00,0.0027
1653.00,0.0026
1652.00,0.0027
1651.00,0.0030
1650.00,0.0031
1649.00,0.0032
1648.00,0.0032
1647.00,0.0032
1646.00,0.0032
1645.00,0.0032
1644.00,0.0032
1643.00,0.0032
1642.00,0.0032
1641.00,0.0031
1640.00,0.0031
1639.00,0.0031
1638.00,0.0031
1637.00,0.0030
1636.00,0.0030
1635.00,0.0030
1634.00,0.0030
1633.00,0.0030
1632.00,0.0030
1631.00,0.0030
1630.00,0.0031
1629.00,0.0030
1628.00,0.0030
1627.00,0.0031
1626.00,0.0031
1625.00,0.0031
1624.00,0.0032
1623.00,0.0032
1622.00,0.0032
1621.00,0.0032
1620.00,0.0032
1619.00,0.0032
1618.00,0.0032
1617.00,0.0032
1616.00,0.0034
1615.00,0.0036
1614.00,0.0038
1613.00,0.0040
1612.00,0.0043
1611.00,0.0047
1610.00,0.0053
1609.00,0.0060
1608.00,0.0070
1607.00,0.0083
1606.00,0.0098
1605.00,0.0115
1604.00,0.0132
1603.00,0.0148
1602.00,0.0159
1601.00,0.0163
1600.00,0.0160
1599.00,0.0150
1598.00,0.0135
1597.00,0.0118
1596.00,0.0103
1595.00,0.0089
1594.00,0.0079
1593.00,0.0071
1592.00,0.0064
1591.00,0.0060
1590.00,0.0056
1589.00,0.0054
1588.00,0.0054
1587.00,0.0057
1586.00,0.0062
1585.00,0.0067
1584.00,0.0071
1583.00,0.0073
1582.00,0.0071
1581.00,0.0064
1580.00,0.0057
1579.00,0.0050
1578.00,0.0043
1577.00,0.0038
1576.00,0.0035
1575.00,0.0033
1574.00,0.0032
1573.00,0.0031
1572.00,0.0030
1571.00,0.0029
1570.00,0.0028
1569.00,0.0027
1568.00,0.0028
1567.00,0.0028
1566.00,0.0028
1565.00,0.0027
1564.00,0.0026
1563.00,0.0025
1562.00,0.0023
1561.00,0.0023
1560.00,0.0025
1559.00,0.0028
1558.00,0.0029
1557.00,0.0030
1556.00,0.0031
1555.00,0.0031
1554.00,0.0031
1553.00,0.0031
1552.00,0.0031
1551.00,0.0031
1550.00,0.0031
1549.00,0.0032
1548.00,0.0033
1547.00,0.0035
1546.00,0.0036
1545.00,0.0036
1544.00,0.0036
1543.00,0.0037
1542.00,0.0038
1541.00,0.0038
1540.00,0.0035
1539.00,0.0033
1538.00,0.0032
1537.00,0.0033
1536.00,0.0033
1535.00,0.0032
1534.00,0.0032
1533.00,0.0030
1532.00,0.0029
1531.00,0.0029
1530.00,0.0029
1529.00,0.0028
1528.00,0.0028
1527.00,0.0028
1526.00,0.0028
1525.00,0.0029
1524.00,0.0029
1523.00,0.0028
1522.00,0.0029
1521.00,0.0029
1520.00,0.0029
1519.00,0.0028
1518.00,0.0029
1517.00,0.0029
1516.00,0.0030
1515.00,0.0031
1514.00,0.0033
1513.00,0.0034
1512.00,0.0034
1511.00,0.0034
1510.00,0.0034
1509.00,0.0034
1508.00,0.0035
1507.00,0.0036
1506.00,0.0039
1505.00,0.0043
1504.00,0.0046
1503.00,0.0050
1502.00,0.0056
1501.00,0.0064
1500.00,0.0077
1499.00,0.0096
1498.00,0.0127
1497.00,0.0175
1496.00,0.0238
1495.00,0.0304
1494.00,0.0359
1493.00,0.0395
1492.00,0.0401
1491.00,0.0371
1490.00,0.0312
1489.00,0.0246
1488.00,0.0193
1487.00,0.0156
1486.00,0.0130
1485.00,0.0111
1484.00,0.0096
1483.00,0.0084
1482.00,0.0075
1481.00,0.0068
1480.00,0.0063
1479.00,0.0060
1478.00,0.0058
1477.00,0.0057
1476.00,0.0056
1475.00,0.0056
1474.00,0.0057
1473.00,0.0057
1472.00,0.0057
1471.00,0.0056
1470.00,0.0056
1469.00,0.0056
1468.00,0.0056
1467.00,0.0057
1466.00,0.0059
1465.00,0.0062
1464.00,0.0065
1463.00,0.0068
1462.00,0.0072
1461.00,0.0078
1460.00,0.0085
1459.00,0.0098
1458.00,0.0124
1457.00,0.0173
1456.00,0.0236
1455.00,0.0296
1454.00,0.0347
1453.00,0.0387
1452.00,0.0408
1451.00,0.0407
1450.00,0.0387
1449.00,0.0357
1448.00,0.0324
1447.00,0.0293
1446.00,0.0269
1445.00,0.0250
1444.00,0.0232
1443.00,0.0214
1442.00,0.0197
1441.00,0.0182
1440.00,0.0170
1439.00,0.0158
1438.00,0.0147
1437.00,0.0134
1436.00,0.0119
1435.00,0.0107
1434.00,0.0098
1433.00,0.0091
1432.00,0.0084
1431.00,0.0077
1430.00,0.0071
1429.00,0.0067
1428.00,0.0064
1427.00,0.0061
1426.00,0.0059
1425.00,0.0057
1424.00,0.0055
1423.00,0.0054
1422.00,0.0053
1421.00,0.0052
1420.00,0.0051
1419.00,0.0050
1418.00,0.0049
1417.00,0.0050
1416.00,0.0049
1415.00,0.0049
1414.00,0.0048
1413.00,0.0047
1412.00,0.0047
1411.00,0.0046
1410.00,0.0046
1409.00,0.0046
1408.00,0.0046
1407.00,0.0046
1406.00,0.0046
1405.00,0.0046
1404.00,0.0046
1403.00,0.0046
1402.00,0.0046
1401.00,0.0046
1400.00,0.0047
1399.00,0.0047
1398.00,0.0048
1397.00,0.0049
1396.00,0.0049
1395.00,0.0050
1394.00,0.0052
1393.00,0.0053
1392.00,0.0055
1391.00,0.0057
1390.00,0.0059
1389.00,0.0062
1388.00,0.0065
1387.00,0.0068
1386.00,0.0071
1385.00,0.0074
1384.00,0.0076
1383.00,0.0079
1382.00,0.0081
1381.00,0.0083
1380.00,0.0085
1379.00,0.0088
1378.00,0.0090
1377.00,0.0093
1376.00,0.0095
1375.00,0.0096
1374.00,0.0097
1373.00,0.0098
1372.00,0.0099
1371.00,0.0099
1370.00,0.0098
1369.00,0.0098
1368.00,0.0097
1367.00,0.0096
1366.00,0.0096
1365.00,0.0096
1364.00,0.0094
1363.00,0.0093
1362.00,0.0092
1361.00,0.0091
1360.00,0.0090
1359.00,0.0089
1358.00,0.0088
1357.00,0.0087
1356.00,0.0086
1355.00,0.0085
1354.00,0.0085
1353.00,0.0084
1352.00,0.0084
1351.00,0.0084
1350.00,0.0084
1349.00,0.0084
1348.00,0.0083
1347.00,0.0083
1346.00,0.0082
1345.00,0.0081
1344.00,0.0080
1343.00,0.0078
1342.00,0.0077
1341.00,0.0075
1340.00,0.0074
1339.00,0.0074
1338.00,0.0074
1337.00,0.0075
1336.00,0.0076
1335.00,0.0077
1334.00,0.0079
1333.00,0.0080
1332.00,0.0082
1331.00,0.0084
1330.00,0.0085
1329.00,0.0086
1328.00,0.0086
1327.00,0.0086
1326.00,0.0085
1325.00,0.0084
1324.00,0.0083
1323.00,0.0082
1322.00,0.0081
1321.00,0.0080
1320.00,0.0080
1319.00,0.0080
1318.00,0.0080
1317.00,0.0081
1316.00,0.0082
1315.00,0.0083
1314.00,0.0084
1313.00,0.0084
1312.00,0.0084
1311.00,0.0084
1310.00,0.0084
1309.00,0.0083
1308.00,0.0082
1307.00,0.0080
1306.00,0.0079
1305.00,0.0078
1304.00,0.0077
1303.00,0.0075
1302.00,0.0074
1301.00,0.0073
1300.00,0.0072
1299.00,0.0071
1298.00,0.0070
1297.00,0.0069
1296.00,0.0068
1295.00,0.0068
1294.00,0.0068
1293.00,0.0067
1292.00,0.0067
1291.00,0.0067
1290.00,0.0066
1289.00,0.0066
1288.00,0.0065
1287.00,0.0065
1286.00,0.0064
1285.00,0.0064
1284.00,0.0064
1283.00,0.0064
1282.00,0.0064
1281.00,0.0065
1280.00,0.0064
1279.00,0.0064
1278.00,0.0063
1277.00,0.0062
1276.00,0.0061
1275.00,0.0060
1274.00,0.0059
1273.00,0.0058
1272.00,0.0057
1271.00,0.0057
1270.00,0.0056
1269.00,0.0056
1268.00,0.0055
1267.00,0.0055
1266.00,0.0054
1265.00,0.0054
1264.00,0.0054
1263.00,0.0054
1262.00,0.0054
1261.00,0.0053
1260.00,0.0053
1259.00,0.0053
1258.00,0.0053
1257.00,0.0053
1256.00,0.0053
1255.00,0.0053
1254.00,0.0053
1253.00,0.0053
1252.00,0.0053
1251.00,0.0053
1250.00,0.0053
1249.00,0.0053
1248.00,0.0053
1247.00,0.0053
1246.00,0.0054
1245.00,0.0054
1244.00,0.0054
1243.00,0.0054
1242.00,0.0053
1241.00,0.0053
1240.00,0.0053
1239.00,0.0053
1238.00,0.0053
1237.00,0.0053
1236.00,0.0052
1235.00,0.0052
1234.00,0.0052
1233.00,0.0052
1232.00,0.0052
1231.00,0.0052
1230.00,0.0052
1229.00,0.0053
1228.00,0.0053
1227.00,0.0053
1226.00,0.0053
1225.00,0.0053
1224.00,0.0052
1223.00,0.0052
1222.00,0.0052
1221.00,0.0052
1220.00,0.0052
1219.00,0.0052
1218.00,0.0052
1217.00,0.0052
1216.00,0.0052
1215.00,0.0052
1214.00,0.0053
1213.00,0.0054
1212.00,0.0055
1211.00,0.0056
1210.00,0.0057
1209.00,0.0058
1208.00,0.0059
1207.00,0.0060
1206.00,0.0061
1205.00,0.0063
1204.00,0.0064
1203.00,0.0066
1202.00,0.0068
1201.00,0.0070
1200.00,0.0071
1199.00,0.0072
1198.00,0.0074
1197.00,0.0074
1196.00,0.0075
1195.00,0.0075
1194.00,0.0075
1193.00,0.0076
1192.00,0.0076
1191.00,0.0076
1190.00,0.0077
1189.00,0.0078
1188.00,0.0079
1187.00,0.0081
1186.00,0.0084
1185.00,0.0089
1184.00,0.0093
1183.00,0.0097
1182.00,0.0100
1181.00,0.0101
1180.00,0.0099
1179.00,0.0095
1178.00,0.0089
1177.00,0.0084
1176.00,0.0078
1175.00,0.0074
1174.00,0.0071
1173.00,0.0068
1172.00,0.0067
1171.00,0.0066
1170.00,0.0065
1169.00,0.0065
1168.00,0.0065
1167.00,0.0065
1166.00,0.0065
1165.00,0.0066
1164.00,0.0067
1163.00,0.0069
1162.00,0.0071
1161.00,0.0074
1160.00,0.0078
1159.00,0.0084
1158.00,0.0090
1157.00,0.0097
1156.00,0.0102
1155.00,0.0105
1154.00,0.0105
1153.00,0.0103
1152.00,0.0097
1151.00,0.0090
1150.00,0.0082
1149.00,0.0076
1148.00,0.0071
1147.00,0.0067
1146.00,0.0064
1145.00,0.0062
1144.00,0.0059
1143.00,0.0057
1142.00,0.0056
1141.00,0.0055
1140.00,0.0053
1139.00,0.0052
1138.00,0.0051
1137.00,0.0050
1136.00,0.0049
1135.00,0.0049
1134.00,0.0049
1133.00,0.0049
1132.00,0.0049
1131.00,0.0049
1130.00,0.0049
1129.00,0.0050
1128.00,0.0050
1127.00,0.0051
1126.00,0.0051
1125.00,0.0052
1124.00,0.0053
1123.00,0.0053
1122.00,0.0055
1121.00,0.0056
1120.00,0.0057
1119.00,0.0059
1118.00,0.0061
1117.00,0.0063
1116.00,0.0064
1115.00,0.0066
1114.00,0.0067
1113.00,0.0068
1112.00,0.0068
1111.00,0.0068
1110.00,0.0069
1109.00,0.0069
1108.00,0.0069
1107.00,0.0068
1106.00,0.0068
1105.00,0.0068
1104.00,0.0068
1103.00,0.0069
1102.00,0.0070
1101.00,0.0071
1100.00,0.0072
1099.00,0.0073
1098.00,0.0074
1097.00,0.0075
1096.00,0.0076
1095.00,0.0077
1094.00,0.0078
1093.00,0.0079
1092.00,0.0080
1091.00,0.0081
1090.00,0.0082
1089.00,0.0084
1088.00,0.0086
1087.00,0.0087
1086.00,0.0090
1085.00,0.0092
1084.00,0.0095
1083.00,0.0097
1082.00,0.0100
1081.00,0.0103
1080.00,0.0106
1079.00,0.0109
1078.00,0.0112
1077.00,0.0116
1076.00,0.0120
1075.00,0.0125
1074.00,0.0130
1073.00,0.0135
1072.00,0.0140
1071.00,0.0144
1070.00,0.0147
1069.00,0.0149
1068.00,0.0148
1067.00,0.0146
1066.00,0.0142
1065.00,0.0138
1064.00,0.0133
1063.00,0.0128
1062.00,0.0124
1061.00,0.0119
1060.00,0.0115
1059.00,0.0111
1058.00,0.0108
1057.00,0.0105
1056.00,0.0102
1055.00,0.0099
1054.00,0.0098
1053.00,0.0096
1052.00,0.0094
1051.00,0.0093
1050.00,0.0092
1049.00,0.0091
1048.00,0.0089
1047.00,0.0088
1046.00,0.0087
1045.00,0.0087
1044.00,0.0087
1043.00,0.0087
1042.00,0.0088
1041.00,0.0089
1040.00,0.0091
1039.00,0.0094
1038.00,0.0100
1037.00,0.0107
1036.00,0.0118
1035.00,0.0132
1034.00,0.0151
1033.00,0.0172
1032.00,0.0193
1031.00,0.0213
1030.00,0.0230
1029.00,0.0241
1028.00,0.0245
1027.00,0.0242
1026.00,0.0233
1025.00,0.0219
1024.00,0.0203
1023.00,0.0188
1022.00,0.0176
1021.00,0.0165
1020.00,0.0156
1019.00,0.0148
1018.00,0.0142
1017.00,0.0136
1016.00,0.0131
1015.00,0.0127
1014.00,0.0123
1013.00,0.0120
1012.00,0.0117
1011.00,0.0114
1010.00,0.0112
1009.00,0.0111
1008.00,0.0110
1007.00,0.0111
1006.00,0.0113
1005.00,0.0116
1004.00,0.0118
1003.00,0.0119
1002.00,0.0117
1001.00,0.0112
1000.00,0.0105
999.00,0.0099
998.00,0.0095
997.00,0.0091
996.00,0.0089
995.00,0.0088
994.00,0.0088
993.00,0.0088
992.00,0.0088
991.00,0.0089
990.00,0.0089
989.00,0.0090
988.00,0.0091
987.00,0.0093
986.00,0.0095
985.00,0.0097
984.00,0.0099
983.00,0.0101
982.00,0.0103
981.00,0.0104
980.00,0.0104
979.00,0.0103
978.00,0.0102
977.00,0.0100
976.00,0.0098
975.00,0.0096
974.00,0.0094
973.00,0.0094
972.00,0.0094
971.00,0.0095
970.00,0.0097
969.00,0.0100
968.00,0.0102
967.00,0.0105
966.00,0.0108
965.00,0.0110
964.00,0.0110
963.00,0.0108
962.00,0.0106
961.00,0.0102
960.00,0.0098
959.00,0.0093
958.00,0.0089
957.00,0.0086
956.00,0.0083
955.00,0.0081
954.00,0.0080
953.00,0.0080
952.00,0.0079
951.00,0.0079
950.00,0.0080
949.00,0.0081
948.00,0.0082
947.00,0.0083
946.00,0.0084
945.00,0.0086
944.00,0.0086
943.00,0.0087
942.00,0.0087
941.00,0.0086
940.00,0.0084
939.00,0.0081
938.00,0.0079
937.00,0.0077
936.00,0.0074
935.00,0.0072
934.00,0.0069
933.00,0.0067
932.00,0.0065
931.00,0.0063
930.00,0.0062
929.00,0.0061
928.00,0.0061
927.00,0.0061
926.00,0.0062
925.00,0.0063
924.00,0.0064
923.00,0.0065
922.00,0.0067
921.00,0.0069
920.00,0.0071
919.00,0.0074
918.00,0.0078
917.00,0.0083
916.00,0.0088
915.00,0.0095
914.00,0.0104
913.00,0.0114
912.00,0.0124
911.00,0.0135
910.00,0.0145
909.00,0.0155
908.00,0.0162
907.00,0.0166
906.00,0.0168
905.00,0.0165
904.00,0.0158
903.00,0.0149
902.00,0.0138
901.00,0.0126
900.00,0.0114
899.00,0.0103
898.00,0.0093
897.00,0.0085
896.00,0.0079
895.00,0.0073
894.00,0.0070
893.00,0.0067
892.00,0.0065
891.00,0.0063
890.00,0.0061
889.00,0.0060
888.00,0.0059
887.00,0.0058
886.00,0.0057
885.00,0.0056
884.00,0.0055
883.00,0.0054
882.00,0.0053
881.00,0.0053
880.00,0.0053
879.00,0.0053
878.00,0.0054
877.00,0.0054
876.00,0.0053
875.00,0.0052
874.00,0.0051
873.00,0.0050
872.00,0.0049
871.00,0.0048
870.00,0.0048
869.00,0.0048
868.00,0.0047
867.00,0.0047
866.00,0.0047
865.00,0.0047
864.00,0.0046
863.00,0.0046
862.00,0.0046
861.00,0.0046
860.00,0.0046
859.00,0.0046
858.00,0.0047
857.00,0.0047
856.00,0.0047
855.00,0.0047
854.00,0.0048
853.00,0.0050
852.00,0.0053
851.00,0.0056
850.00,0.0060
849.00,0.0065
848.00,0.0069
847.00,0.0073
846.00,0.0078
845.00,0.0082
844.00,0.0085
843.00,0.0087
842.00,0.0089
841.00,0.0089
840.00,0.0087
839.00,0.0084
838.00,0.0080
837.00,0.0076
836.00,0.0070
835.00,0.0065
834.00,0.0061
833.00,0.0057
832.00,0.0053
831.00,0.0050
830.00,0.0048
829.00,0.0047
828.00,0.0046
827.00,0.0045
826.00,0.0045
825.00,0.0046
824.00,0.0045
823.00,0.0045
822.00,0.0045
821.00,0.0046
820.00,0.0046
819.00,0.0046
818.00,0.0047
817.00,0.0047
816.00,0.0047
815.00,0.0047
814.00,0.0048
813.00,0.0049
812.00,0.0049
811.00,0.0050
810.00,0.0050
809.00,0.0051
808.00,0.0050
807.00,0.0050
806.00,0.0051
805.00,0.0052
804.00,0.0053
803.00,0.0053
802.00,0.0054
801.00,0.0055
800.00,0.0056
799.00,0.0057
798.00,0.0060
797.00,0.0062
796.00,0.0065
795.00,0.0067
794.00,0.0071
793.00,0.0074
792.00,0.0077
791.00,0.0081
790.00,0.0086
789.00,0.0091
788.00,0.0096
787.00,0.0101
786.00,0.0107
785.00,0.0112
784.00,0.0118
783.00,0.0124
782.00,0.0132
781.00,0.0141
780.00,0.0151
779.00,0.0163
778.00,0.0177
777.00,0.0192
776.00,0.0208
775.00,0.0226
774.00,0.0247
773.00,0.0268
772.00,0.0291
771.00,0.0316
770.00,0.0344
769.00,0.0372
768.00,0.0399
767.00,0.0426
766.00,0.0454
765.00,0.0480
764.00,0.0506
763.00,0.0533
762.00,0.0561
761.00,0.0590
760.00,0.0618
759.00,0.0645
758.00,0.0668
757.00,0.0686
756.00,0.0697
755.00,0.0703
754.00,0.0706
753.00,0.0705
752.00,0.0702
751.00,0.0700
750.00,0.0699
749.00,0.0698
748.00,0.0693
747.00,0.0683
746.00,0.0664
745.00,0.0636
744.00,0.0597
743.00,0.0552
742.00,0.0505
741.00,0.0459
740.00,0.0414
739.00,0.0374
738.00,0.0338
737.00,0.0304
736.00,0.0272
735.00,0.0241
734.00,0.0213
733.00,0.0186
732.00,0.0162
731.00,0.0143
730.00,0.0128
729.00,0.0117
728.00,0.0109
727.00,0.0104
726.00,0.0100
725.00,0.0097
724.00,0.0095
723.00,0.0093
722.00,0.0093
721.00,0.0092
720.00,0.0093
719.00,0.0094
718.00,0.0097
717.00,0.0102
716.00,0.0107
715.00,0.0114
714.00,0.0126
713.00,0.0142
712.00,0.0164
711.00,0.0194
710.00,0.0235
709.00,0.0289
708.00,0.0357
707.00,0.0443
706.00,0.0547
705.00,0.0669
704.00,0.0806
703.00,0.0959
702.00,0.1124
701.00,0.1298
700.00,0.1476
699.00,0.1655
698.00,0.1832
697.00,0.1996
696.00,0.2126
695.00,0.2196
694.00,0.2180
693.00,0.2068
692.00,0.1879
691.00,0.1653
690.00,0.1430
689.00,0.1231
688.00,0.1064
687.00,0.0929
686.00,0.0823
685.00,0.0739
684.00,0.0669
683.00,0.0611
682.00,0.0564
681.00,0.0523
680.00,0.0486
679.00,0.0454
678.00,0.0428
677.00,0.0405
676.00,0.0385
675.00,0.0368
674.00,0.0354
673.00,0.0341
672.00,0.0328
671.00,0.0317
670.00,0.0307
669.00,0.0295
668.00,0.0281
667.00,0.0268
666.00,0.0261
665.00,0.0255
664.00,0.0248
663.00,0.0239
662.00,0.0231
661.00,0.0222
660.00,0.0212
659.00,0.0203
658.00,0.0195
657.00,0.0188
656.00,0.0180
655.00,0.0172
654.00,0.0166
653.00,0.0159
652.00,0.0153
651.00,0.0148
650.00,0.0145
649.00,0.0142
648.00,0.0138
647.00,0.0135
646.00,0.0132
645.00,0.0129
644.00,0.0126
643.00,0.0124
642.00,0.0124
641.00,0.0125
640.00,0.0125
639.00,0.0126
638.00,0.0129
637.00,0.0131
636.00,0.0133
635.00,0.0136
634.00,0.0140
633.00,0.0144
632.00,0.0147
631.00,0.0149
630.00,0.0152
629.00,0.0155
628.00,0.0157
627.00,0.0159
626.00,0.0160
625.00,0.0162
624.00,0.0163
623.00,0.0166
622.00,0.0170
621.00,0.0173
620.00,0.0171
619.00,0.0167
618.00,0.0161
617.00,0.0156
616.00,0.0152
615.00,0.0149
614.00,0.0147
613.00,0.0144
612.00,0.0140
611.00,0.0136
610.00,0.0135
609.00,0.0135
608.00,0.0135
607.00,0.0135
606.00,0.0136
605.00,0.0136
604.00,0.0136
603.00,0.0137
602.00,0.0138
601.00,0.0140
600.00,0.0141
599.00,0.0142
598.00,0.0145
597.00,0.0147
596.00,0.0148
595.00,0.0149
594.00,0.0151
593.00,0.0154
592.00,0.0154
591.00,0.0155
590.00,0.0157
589.00,0.0160
588.00,0.0161
587.00,0.0164
586.00,0.0168
585.00,0.0172
584.00,0.0175
583.00,0.0178
582.00,0.0183
581.00,0.0188
580.00,0.0193
579.00,0.0200
578.00,0.0209
577.00,0.0219
576.00,0.0228
575.00,0.0237
574.00,0.0248
573.00,0.0258
572.00,0.0268
571.00,0.0278
570.00,0.0290
569.00,0.0300
568.00,0.0309
567.00,0.0318
566.00,0.0329
565.00,0.0338
564.00,0.0347
563.00,0.0356
562.00,0.0367
561.00,0.0378
560.00,0.0388
559.00,0.0397
558.00,0.0407
557.00,0.0417
556.00,0.0425
555.00,0.0436
554.00,0.0449
553.00,0.0463
552.00,0.0476
551.00,0.0490
550.00,0.0507
549.00,0.0526
548.00,0.0545
547.00,0.0566
546.00,0.0591
545.00,0.0617
544.00,0.0642
543.00,0.0668
542.00,0.0694
541.00,0.0718
540.00,0.0737
539.00,0.0751
538.00,0.0759
537.00,0.0757
536.00,0.0744
535.00,0.0722
534.00,0.0695
533.00,0.0661
532.00,0.0623
531.00,0.0584
530.00,0.0546
529.00,0.0511
528.00,0.0478
527.00,0.0447
526.00,0.0419
525.00,0.0393
524.00,0.0368
523.00,0.0347
522.00,0.0331
521.00,0.0317
520.00,0.0304
519.00,0.0291
518.00,0.0282
517.00,0.0274
516.00,0.0264
515.00,0.0256
514.00,0.0250
513.00,0.0243
512.00,0.0236
511.00,0.0230
510.00,0.0227
509.00,0.0223
508.00,0.0216
507.00,0.0208
506.00,0.0203
505.00,0.0198
504.00,0.0193
503.00,0.0190
502.00,0.0187
501.00,0.0183
500.00,0.0176
499.00,0.0172
498.00,0.0173
497.00,0.0174
496.00,0.0171
495.00,0.0167
494.00,0.0163
493.00,0.0158
492.00,0.0152
491.00,0.0149
490.00,0.0151
489.00,0.0152
488.00,0.0149
487.00,0.0146
486.00,0.0145
485.00,0.0144
484.00,0.0141
483.00,0.0140
482.00,0.0142
481.00,0.0143
480.00,0.0141
479.00,0.0139
478.00,0.0139
477.00,0.0139
476.00,0.0135
475.00,0.0131
474.00,0.0130
473.00,0.0129
472.00,0.0127
471.00,0.0126
470.00,0.0130
469.00,0.0132
468.00,0.0130
467.00,0.0128
466.00,0.0130
465.00,0.0130
464.00,0.0127
463.00,0.0124
462.00,0.0125
461.00,0.0127
460.00,0.0127
459.00,0.0128
458.00,0.0133
457.00,0.0135
456.00,0.0130
455.00,0.0126
454.00,0.0127
453.00,0.0127
452.00,0.0123
451.00,0.0120
450.00,0.0123
449.00,0.0125
448.00,0.0123
447.00,0.0121
446.00,0.0124
445.00,0.0125
444.00,0.0121
443.00,0.0119
442.00,0.0124
441.00,0.0127
440.00,0.0122
439.00,0.0116
438.00,0.0115
437.00,0.0115
436.00,0.0112
435.00,0.0111
434.00,0.0115
433.00,0.0116
432.00,0.0111
431.00,0.0109
430.00,0.0116
429.00,0.0123
428.00,0.0120
427.00,0.0114
426.00,0.0111
425.00,0.0109
424.00,0.0104
423.00,0.0103
422.00,0.0111
421.00,0.0120
420.00,0.0121
419.00,0.0120
418.00,0.0122
417.00,0.0118
416.00,0.0105
415.00,0.0098
414.00,0.0103
413.00,0.0106
412.00,0.0098
411.00,0.0090
410.00,0.0098
409.00,0.0109
408.00,0.0111
407.00,0.0113
406.00,0.0127
405.00,0.0138
404.00,0.0131
403.00,0.0116
402.00,0.0111
401.00,0.0107
400.00,0.0089
