Created as New Dataset,Sample 744 By YargerLab Date Friday, June 27 2025
cm-1,A
4000.00,0.0015
3999.00,0.0015
3998.00,0.0015
3997.00,0.0015
3996.00,0.0015
3995.00,0.0015
3994.00,0.0015
3993.00,0.0015
3992.00,0.0015
3991.00,0.0015
3990.00,0.0015
3989.00,0.0015
3988.00,0.0015
3987.00,0.0015
3986.00,0.0015
3985.00,0.0015
3984.00,0.0015
3983.00,0.0015
3982.00,0.0015
3981.00,0.0014
3980.00,0.0014
3979.00,0.0014
3978.00,0.0014
3977.00,0.0014
3976.00,0.0014
3975.00,0.0014
3974.00,0.0015
3973.00,0.0015
3972.00,0.0015
3971.00,0.0015
3970.00,0.0015
3969.00,0.0015
3968.00,0.0015
3967.00,0.0015
3966.00,0.0015
3965.00,0.0015
3964.00,0.0015
3963.00,0.0015
3962.00,0.0015
3961.00,0.0015
3960.00,0.0015
3959.00,0.0015
3958.00,0.0014
3957.00,0.0014
3956.00,0.0015
3955.00,0.0015
3954.00,0.0015
3953.00,0.0015
3952.00,0.0015
3951.00,0.0015
3950.00,0.0015
3949.00,0.0015
3948.00,0.0015
3947.00,0.0015
3946.00,0.0015
3945.00,0.0015
3944.00,0.0015
3943.00,0.0015
3942.00,0.0015
3941.00,0.0015
3940.00,0.0015
3939.00,0.0015
3938.00,0.0015
3937.00,0.0015
3936.00,0.0015
3935.00,0.0015
3934.00,0.0015
3933.00,0.0015
3932.00,0.0015
3931.00,0.0015
3930.00,0.0015
3929.00,0.0014
3928.00,0.0014
3927.00,0.0014
3926.00,0.0014
3925.00,0.0015
3924.00,0.0015
3923.00,0.0015
3922.00,0.0015
3921.00,0.0016
3920.00,0.0016
3919.00,0.0016
3918.00,0.0015
3917.00,0.0015
3916.00,0.0015
3915.00,0.0015
3914.00,0.0015
3913.00,0.0015
3912.00,0.0014
3911.00,0.0014
3910.00,0.0014
3909.00,0.0015
3908.00,0.0015
3907.00,0.0015
3906.00,0.0015
3905.00,0.0015
3904.00,0.0016
3903.00,0.0016
3902.00,0.0016
3901.00,0.0016
3900.00,0.0016
3899.00,0.0015
3898.00,0.0015
3897.00,0.0015
3896.00,0.0015
3895.00,0.0015
3894.00,0.0015
3893.00,0.0014
3892.00,0.0014
3891.00,0.0014
3890.00,0.0014
3889.00,0.0015
3888.00,0.0015
3887.00,0.0015
3886.00,0.0015
3885.00,0.0015
3884.00,0.0015
3883.00,0.0015
3882.00,0.0015
3881.00,0.0015
3880.00,0.0015
3879.00,0.0015
3878.00,0.0015
3877.00,0.0015
3876.00,0.0015
3875.00,0.0015
3874.00,0.0015
3873.00,0.0015
3872.00,0.0015
3871.00,0.0015
3870.00,0.0015
3869.00,0.0015
3868.00,0.0015
3867.00,0.0015
3866.00,0.0015
3865.00,0.0015
3864.00,0.0015
3863.00,0.0015
3862.00,0.0015
3861.00,0.0015
3860.00,0.0015
3859.00,0.0015
3858.00,0.0015
3857.00,0.0014
3856.00,0.0014
3855.00,0.0014
3854.00,0.0014
3853.00,0.0015
3852.00,0.0015
3851.00,0.0015
3850.00,0.0015
3849.00,0.0015
3848.00,0.0015
3847.00,0.0015
3846.00,0.0015
3845.00,0.0015
3844.00,0.0015
3843.00,0.0015
3842.00,0.0015
3841.00,0.0015
3840.00,0.0015
3839.00,0.0015
3838.00,0.0015
3837.00,0.0015
3836.00,0.0014
3835.00,0.0015
3834.00,0.0015
3833.00,0.0015
3832.00,0.0015
3831.00,0.0015
3830.00,0.0015
3829.00,0.0015
3828.00,0.0015
3827.00,0.0015
3826.00,0.0015
3825.00,0.0016
3824.00,0.0016
3823.00,0.0016
3822.00,0.0016
3821.00,0.0016
3820.00,0.0016
3819.00,0.0016
3818.00,0.0016
3817.00,0.0015
3816.00,0.0015
3815.00,0.0015
3814.00,0.0015
3813.00,0.0015
3812.00,0.0015
3811.00,0.0015
3810.00,0.0015
3809.00,0.0015
3808.00,0.0015
3807.00,0.0015
3806.00,0.0015
3805.00,0.0016
3804.00,0.0016
3803.00,0.0016
3802.00,0.0016
3801.00,0.0016
3800.00,0.0016
3799.00,0.0016
3798.00,0.0016
3797.00,0.0016
3796.00,0.0016
3795.00,0.0016
3794.00,0.0015
3793.00,0.0015
3792.00,0.0015
3791.00,0.0015
3790.00,0.0015
3789.00,0.0015
3788.00,0.0015
3787.00,0.0014
3786.00,0.0015
3785.00,0.0015
3784.00,0.0015
3783.00,0.0015
3782.00,0.0015
3781.00,0.0015
3780.00,0.0015
3779.00,0.0015
3778.00,0.0015
3777.00,0.0015
3776.00,0.0015
3775.00,0.0015
3774.00,0.0015
3773.00,0.0015
3772.00,0.0015
3771.00,0.0016
3770.00,0.0016
3769.00,0.0016
3768.00,0.0016
3767.00,0.0015
3766.00,0.0015
3765.00,0.0015
3764.00,0.0015
3763.00,0.0016
3762.00,0.0016
3761.00,0.0017
3760.00,0.0017
3759.00,0.0016
3758.00,0.0016
3757.00,0.0016
3756.00,0.0016
3755.00,0.0016
3754.00,0.0017
3753.00,0.0017
3752.00,0.0016
3751.00,0.0016
3750.00,0.0016
3749.00,0.0015
3748.00,0.0015
3747.00,0.0015
3746.00,0.0016
3745.00,0.0016
3744.00,0.0016
3743.00,0.0016
3742.00,0.0016
3741.00,0.0016
3740.00,0.0016
3739.00,0.0017
3738.00,0.0017
3737.00,0.0017
3736.00,0.0017
3735.00,0.0017
3734.00,0.0017
3733.00,0.0017
3732.00,0.0017
3731.00,0.0016
3730.00,0.0016
3729.00,0.0016
3728.00,0.0016
3727.00,0.0015
3726.00,0.0015
3725.00,0.0015
3724.00,0.0015
3723.00,0.0016
3722.00,0.0016
3721.00,0.0016
3720.00,0.0016
3719.00,0.0016
3718.00,0.0016
3717.00,0.0015
3716.00,0.0015
3715.00,0.0015
3714.00,0.0015
3713.00,0.0015
3712.00,0.0015
3711.00,0.0016
3710.00,0.0016
3709.00,0.0016
3708.00,0.0015
3707.00,0.0015
3706.00,0.0015
3705.00,0.0015
3704.00,0.0015
3703.00,0.0015
3702.00,0.0015
3701.00,0.0015
3700.00,0.0015
3699.00,0.0015
3698.00,0.0015
3697.00,0.0015
3696.00,0.0015
3695.00,0.0015
3694.00,0.0015
3693.00,0.0015
3692.00,0.0015
3691.00,0.0014
3690.00,0.0014
3689.00,0.0014
3688.00,0.0014
3687.00,0.0014
3686.00,0.0014
3685.00,0.0014
3684.00,0.0014
3683.00,0.0014
3682.00,0.0014
3681.00,0.0014
3680.00,0.0014
3679.00,0.0014
3678.00,0.0014
3677.00,0.0014
3676.00,0.0014
3675.00,0.0014
3674.00,0.0014
3673.00,0.0014
3672.00,0.0014
3671.00,0.0014
3670.00,0.0013
3669.00,0.0013
3668.00,0.0013
3667.00,0.0012
3666.00,0.0012
3665.00,0.0012
3664.00,0.0012
3663.00,0.0012
3662.00,0.0012
3661.00,0.0012
3660.00,0.0012
3659.00,0.0012
3658.00,0.0012
3657.00,0.0012
3656.00,0.0012
3655.00,0.0013
3654.00,0.0013
3653.00,0.0013
3652.00,0.0014
3651.00,0.0014
3650.00,0.0013
3649.00,0.0014
3648.00,0.0014
3647.00,0.0014
3646.00,0.0014
3645.00,0.0014
3644.00,0.0014
3643.00,0.0013
3642.00,0.0013
3641.00,0.0013
3640.00,0.0013
3639.00,0.0013
3638.00,0.0013
3637.00,0.0013
3636.00,0.0013
3635.00,0.0013
3634.00,0.0014
3633.00,0.0014
3632.00,0.0014
3631.00,0.0014
3630.00,0.0014
3629.00,0.0014
3628.00,0.0015
3627.00,0.0015
3626.00,0.0015
3625.00,0.0015
3624.00,0.0015
3623.00,0.0015
3622.00,0.0015
3621.00,0.0015
3620.00,0.0015
3619.00,0.0015
3618.00,0.0016
3617.00,0.0016
3616.00,0.0016
3615.00,0.0016
3614.00,0.0015
3613.00,0.0015
3612.00,0.0015
3611.00,0.0015
3610.00,0.0015
3609.00,0.0015
3608.00,0.0015
3607.00,0.0015
3606.00,0.0015
3605.00,0.0015
3604.00,0.0015
3603.00,0.0015
3602.00,0.0015
3601.00,0.0015
3600.00,0.0015
3599.00,0.0015
3598.00,0.0015
3597.00,0.0015
3596.00,0.0015
3595.00,0.0015
3594.00,0.0015
3593.00,0.0015
3592.00,0.0015
3591.00,0.0015
3590.00,0.0015
3589.00,0.0016
3588.00,0.0016
3587.00,0.0016
3586.00,0.0016
3585.00,0.0016
3584.00,0.0016
3583.00,0.0016
3582.00,0.0015
3581.00,0.0015
3580.00,0.0015
3579.00,0.0015
3578.00,0.0015
3577.00,0.0015
3576.00,0.0015
3575.00,0.0015
3574.00,0.0015
3573.00,0.0015
3572.00,0.0015
3571.00,0.0015
3570.00,0.0015
3569.00,0.0015
3568.00,0.0015
3567.00,0.0016
3566.00,0.0016
3565.00,0.0016
3564.00,0.0016
3563.00,0.0015
3562.00,0.0015
3561.00,0.0015
3560.00,0.0015
3559.00,0.0015
3558.00,0.0015
3557.00,0.0015
3556.00,0.0015
3555.00,0.0015
3554.00,0.0015
3553.00,0.0015
3552.00,0.0015
3551.00,0.0015
3550.00,0.0015
3549.00,0.0016
3548.00,0.0016
3547.00,0.0016
3546.00,0.0016
3545.00,0.0016
3544.00,0.0016
3543.00,0.0016
3542.00,0.0016
3541.00,0.0016
3540.00,0.0016
3539.00,0.0016
3538.00,0.0016
3537.00,0.0016
3536.00,0.0016
3535.00,0.0016
3534.00,0.0016
3533.00,0.0016
3532.00,0.0016
3531.00,0.0015
3530.00,0.0016
3529.00,0.0016
3528.00,0.0016
3527.00,0.0016
3526.00,0.0016
3525.00,0.0016
3524.00,0.0016
3523.00,0.0016
3522.00,0.0016
3521.00,0.0016
3520.00,0.0016
3519.00,0.0016
3518.00,0.0016
3517.00,0.0016
3516.00,0.0016
3515.00,0.0016
3514.00,0.0016
3513.00,0.0016
3512.00,0.0016
3511.00,0.0016
3510.00,0.0016
3509.00,0.0016
3508.00,0.0017
3507.00,0.0017
3506.00,0.0017
3505.00,0.0017
3504.00,0.0017
3503.00,0.0017
3502.00,0.0017
3501.00,0.0017
3500.00,0.0017
3499.00,0.0017
3498.00,0.0017
3497.00,0.0017
3496.00,0.0017
3495.00,0.0017
3494.00,0.0017
3493.00,0.0017
3492.00,0.0017
3491.00,0.0017
3490.00,0.0017
3489.00,0.0017
3488.00,0.0017
3487.00,0.0017
3486.00,0.0017
3485.00,0.0017
3484.00,0.0017
3483.00,0.0017
3482.00,0.0017
3481.00,0.0017
3480.00,0.0017
3479.00,0.0017
3478.00,0.0017
3477.00,0.0017
3476.00,0.0017
3475.00,0.0017
3474.00,0.0017
3473.00,0.0017
3472.00,0.0017
3471.00,0.0017
3470.00,0.0017
3469.00,0.0017
3468.00,0.0017
3467.00,0.0017
3466.00,0.0017
3465.00,0.0017
3464.00,0.0017
3463.00,0.0018
3462.00,0.0018
3461.00,0.0017
3460.00,0.0017
3459.00,0.0017
3458.00,0.0017
3457.00,0.0017
3456.00,0.0017
3455.00,0.0017
3454.00,0.0017
3453.00,0.0017
3452.00,0.0018
3451.00,0.0018
3450.00,0.0018
3449.00,0.0018
3448.00,0.0018
3447.00,0.0018
3446.00,0.0018
3445.00,0.0017
3444.00,0.0017
3443.00,0.0018
3442.00,0.0018
3441.00,0.0018
3440.00,0.0018
3439.00,0.0018
3438.00,0.0018
3437.00,0.0018
3436.00,0.0018
3435.00,0.0018
3434.00,0.0018
3433.00,0.0018
3432.00,0.0018
3431.00,0.0018
3430.00,0.0018
3429.00,0.0018
3428.00,0.0018
3427.00,0.0018
3426.00,0.0018
3425.00,0.0018
3424.00,0.0018
3423.00,0.0018
3422.00,0.0018
3421.00,0.0018
3420.00,0.0018
3419.00,0.0018
3418.00,0.0018
3417.00,0.0018
3416.00,0.0018
3415.00,0.0018
3414.00,0.0019
3413.00,0.0019
3412.00,0.0019
3411.00,0.0018
3410.00,0.0018
3409.00,0.0018
3408.00,0.0018
3407.00,0.0018
3406.00,0.0018
3405.00,0.0019
3404.00,0.0019
3403.00,0.0019
3402.00,0.0019
3401.00,0.0019
3400.00,0.0019
3399.00,0.0018
3398.00,0.0018
3397.00,0.0018
3396.00,0.0018
3395.00,0.0018
3394.00,0.0018
3393.00,0.0019
3392.00,0.0019
3391.00,0.0019
3390.00,0.0019
3389.00,0.0019
3388.00,0.0019
3387.00,0.0018
3386.00,0.0018
3385.00,0.0018
3384.00,0.0018
3383.00,0.0018
3382.00,0.0018
3381.00,0.0018
3380.00,0.0018
3379.00,0.0018
3378.00,0.0018
3377.00,0.0018
3376.00,0.0018
3375.00,0.0019
3374.00,0.0019
3373.00,0.0019
3372.00,0.0019
3371.00,0.0018
3370.00,0.0018
3369.00,0.0018
3368.00,0.0018
3367.00,0.0018
3366.00,0.0018
3365.00,0.0018
3364.00,0.0018
3363.00,0.0018
3362.00,0.0018
3361.00,0.0018
3360.00,0.0019
3359.00,0.0019
3358.00,0.0018
3357.00,0.0018
3356.00,0.0018
3355.00,0.0018
3354.00,0.0018
3353.00,0.0018
3352.00,0.0018
3351.00,0.0019
3350.00,0.0019
3349.00,0.0019
3348.00,0.0018
3347.00,0.0018
3346.00,0.0018
3345.00,0.0018
3344.00,0.0018
3343.00,0.0018
3342.00,0.0018
3341.00,0.0018
3340.00,0.0019
3339.00,0.0019
3338.00,0.0019
3337.00,0.0018
3336.00,0.0018
3335.00,0.0018
3334.00,0.0018
3333.00,0.0018
3332.00,0.0018
3331.00,0.0018
3330.00,0.0018
3329.00,0.0018
3328.00,0.0018
3327.00,0.0018
3326.00,0.0018
3325.00,0.0018
3324.00,0.0018
3323.00,0.0018
3322.00,0.0018
3321.00,0.0018
3320.00,0.0018
3319.00,0.0017
3318.00,0.0017
3317.00,0.0017
3316.00,0.0017
3315.00,0.0018
3314.00,0.0018
3313.00,0.0018
3312.00,0.0018
3311.00,0.0018
3310.00,0.0018
3309.00,0.0019
3308.00,0.0019
3307.00,0.0019
3306.00,0.0019
3305.00,0.0019
3304.00,0.0019
3303.00,0.0018
3302.00,0.0018
3301.00,0.0018
3300.00,0.0018
3299.00,0.0018
3298.00,0.0018
3297.00,0.0019
3296.00,0.0019
3295.00,0.0019
3294.00,0.0019
3293.00,0.0019
3292.00,0.0019
3291.00,0.0019
3290.00,0.0018
3289.00,0.0018
3288.00,0.0018
3287.00,0.0018
3286.00,0.0018
3285.00,0.0017
3284.00,0.0017
3283.00,0.0017
3282.00,0.0017
3281.00,0.0017
3280.00,0.0017
3279.00,0.0018
3278.00,0.0018
3277.00,0.0018
3276.00,0.0018
3275.00,0.0018
3274.00,0.0018
3273.00,0.0018
3272.00,0.0018
3271.00,0.0018
3270.00,0.0018
3269.00,0.0018
3268.00,0.0018
3267.00,0.0018
3266.00,0.0018
3265.00,0.0018
3264.00,0.0018
3263.00,0.0017
3262.00,0.0017
3261.00,0.0017
3260.00,0.0017
3259.00,0.0017
3258.00,0.0018
3257.00,0.0018
3256.00,0.0018
3255.00,0.0017
3254.00,0.0017
3253.00,0.0017
3252.00,0.0017
3251.00,0.0017
3250.00,0.0017
3249.00,0.0017
3248.00,0.0017
3247.00,0.0017
3246.00,0.0017
3245.00,0.0017
3244.00,0.0017
3243.00,0.0017
3242.00,0.0017
3241.00,0.0017
3240.00,0.0017
3239.00,0.0017
3238.00,0.0017
3237.00,0.0017
3236.00,0.0018
3235.00,0.0018
3234.00,0.0018
3233.00,0.0018
3232.00,0.0017
3231.00,0.0017
3230.00,0.0017
3229.00,0.0017
3228.00,0.0017
3227.00,0.0017
3226.00,0.0017
3225.00,0.0017
3224.00,0.0017
3223.00,0.0017
3222.00,0.0017
3221.00,0.0017
3220.00,0.0017
3219.00,0.0017
3218.00,0.0017
3217.00,0.0017
3216.00,0.0017
3215.00,0.0017
3214.00,0.0017
3213.00,0.0017
3212.00,0.0017
3211.00,0.0017
3210.00,0.0017
3209.00,0.0017
3208.00,0.0017
3207.00,0.0017
3206.00,0.0018
3205.00,0.0018
3204.00,0.0018
3203.00,0.0017
3202.00,0.0017
3201.00,0.0017
3200.00,0.0017
3199.00,0.0017
3198.00,0.0017
3197.00,0.0017
3196.00,0.0017
3195.00,0.0018
3194.00,0.0018
3193.00,0.0018
3192.00,0.0018
3191.00,0.0017
3190.00,0.0017
3189.00,0.0017
3188.00,0.0017
3187.00,0.0017
3186.00,0.0017
3185.00,0.0017
3184.00,0.0017
3183.00,0.0017
3182.00,0.0017
3181.00,0.0017
3180.00,0.0017
3179.00,0.0016
3178.00,0.0016
3177.00,0.0016
3176.00,0.0016
3175.00,0.0016
3174.00,0.0016
3173.00,0.0017
3172.00,0.0017
3171.00,0.0017
3170.00,0.0017
3169.00,0.0017
3168.00,0.0017
3167.00,0.0018
3166.00,0.0018
3165.00,0.0018
3164.00,0.0018
3163.00,0.0018
3162.00,0.0018
3161.00,0.0018
3160.00,0.0018
3159.00,0.0018
3158.00,0.0018
3157.00,0.0018
3156.00,0.0017
3155.00,0.0017
3154.00,0.0017
3153.00,0.0017
3152.00,0.0017
3151.00,0.0017
3150.00,0.0017
3149.00,0.0017
3148.00,0.0017
3147.00,0.0017
3146.00,0.0017
3145.00,0.0017
3144.00,0.0017
3143.00,0.0016
3142.00,0.0016
3141.00,0.0017
3140.00,0.0017
3139.00,0.0017
3138.00,0.0017
3137.00,0.0017
3136.00,0.0017
3135.00,0.0017
3134.00,0.0016
3133.00,0.0016
3132.00,0.0016
3131.00,0.0017
3130.00,0.0017
3129.00,0.0017
3128.00,0.0017
3127.00,0.0017
3126.00,0.0017
3125.00,0.0017
3124.00,0.0018
3123.00,0.0018
3122.00,0.0018
3121.00,0.0018
3120.00,0.0019
3119.00,0.0019
3118.00,0.0020
3117.00,0.0020
3116.00,0.0021
3115.00,0.0021
3114.00,0.0022
3113.00,0.0022
3112.00,0.0023
3111.00,0.0024
3110.00,0.0026
3109.00,0.0027
3108.00,0.0029
3107.00,0.0030
3106.00,0.0032
3105.00,0.0033
3104.00,0.0033
3103.00,0.0034
3102.00,0.0034
3101.00,0.0033
3100.00,0.0033
3099.00,0.0032
3098.00,0.0032
3097.00,0.0032
3096.00,0.0032
3095.00,0.0032
3094.00,0.0033
3093.00,0.0035
3092.00,0.0037
3091.00,0.0039
3090.00,0.0043
3089.00,0.0047
3088.00,0.0051
3087.00,0.0056
3086.00,0.0061
3085.00,0.0066
3084.00,0.0070
3083.00,0.0072
3082.00,0.0073
3081.00,0.0072
3080.00,0.0070
3079.00,0.0067
3078.00,0.0064
3077.00,0.0060
3076.00,0.0058
3075.00,0.0056
3074.00,0.0055
3073.00,0.0055
3072.00,0.0055
3071.00,0.0056
3070.00,0.0058
3069.00,0.0061
3068.00,0.0065
3067.00,0.0069
3066.00,0.0073
3065.00,0.0078
3064.00,0.0084
3063.00,0.0089
3062.00,0.0093
3061.00,0.0096
3060.00,0.0098
3059.00,0.0098
3058.00,0.0096
3057.00,0.0093
3056.00,0.0088
3055.00,0.0084
3054.00,0.0078
3053.00,0.0074
3052.00,0.0069
3051.00,0.0065
3050.00,0.0061
3049.00,0.0058
3048.00,0.0056
3047.00,0.0054
3046.00,0.0053
3045.00,0.0053
3044.00,0.0054
3043.00,0.0054
3042.00,0.0056
3041.00,0.0058
3040.00,0.0061
3039.00,0.0064
3038.00,0.0068
3037.00,0.0073
3036.00,0.0079
3035.00,0.0087
3034.00,0.0096
3033.00,0.0105
3032.00,0.0117
3031.00,0.0129
3030.00,0.0142
3029.00,0.0155
3028.00,0.0167
3027.00,0.0176
3026.00,0.0182
3025.00,0.0184
3024.00,0.0181
3023.00,0.0173
3022.00,0.0161
3021.00,0.0147
3020.00,0.0132
3019.00,0.0117
3018.00,0.0103
3017.00,0.0090
3016.00,0.0080
3015.00,0.0071
3014.00,0.0064
3013.00,0.0059
3012.00,0.0054
3011.00,0.0050
3010.00,0.0048
3009.00,0.0046
3008.00,0.0046
3007.00,0.0046
3006.00,0.0046
3005.00,0.0047
3004.00,0.0047
3003.00,0.0048
3002.00,0.0048
3001.00,0.0047
3000.00,0.0046
2999.00,0.0043
2998.00,0.0040
2997.00,0.0036
2996.00,0.0033
2995.00,0.0030
2994.00,0.0026
2993.00,0.0024
2992.00,0.0022
2991.00,0.0020
2990.00,0.0019
2989.00,0.0018
2988.00,0.0017
2987.00,0.0017
2986.00,0.0015
2985.00,0.0014
2984.00,0.0011
2983.00,0.0009
2982.00,0.0007
2981.00,0.0007
2980.00,0.0008
2979.00,0.0009
2978.00,0.0011
2977.00,0.0012
2976.00,0.0014
2975.00,0.0014
2974.00,0.0015
2973.00,0.0015
2972.00,0.0015
2971.00,0.0016
2970.00,0.0017
2969.00,0.0019
2968.00,0.0021
2967.00,0.0023
2966.00,0.0025
2965.00,0.0026
2964.00,0.0028
2963.00,0.0030
2962.00,0.0032
2961.00,0.0034
2960.00,0.0036
2959.00,0.0038
2958.00,0.0040
2957.00,0.0042
2956.00,0.0044
2955.00,0.0047
2954.00,0.0049
2953.00,0.0052
2952.00,0.0055
2951.00,0.0058
2950.00,0.0061
2949.00,0.0064
2948.00,0.0068
2947.00,0.0073
2946.00,0.0078
2945.00,0.0082
2944.00,0.0087
2943.00,0.0093
2942.00,0.0098
2941.00,0.0104
2940.00,0.0110
2939.00,0.0116
2938.00,0.0123
2937.00,0.0131
2936.00,0.0139
2935.00,0.0146
2934.00,0.0154
2933.00,0.0162
2932.00,0.0170
2931.00,0.0178
2930.00,0.0186
2929.00,0.0193
2928.00,0.0199
2927.00,0.0204
2926.00,0.0209
2925.00,0.0213
2924.00,0.0216
2923.00,0.0217
2922.00,0.0218
2921.00,0.0218
2920.00,0.0217
2919.00,0.0215
2918.00,0.0213
2917.00,0.0210
2916.00,0.0206
2915.00,0.0202
2914.00,0.0198
2913.00,0.0193
2912.00,0.0188
2911.00,0.0182
2910.00,0.0177
2909.00,0.0171
2908.00,0.0166
2907.00,0.0160
2906.00,0.0155
2905.00,0.0149
2904.00,0.0144
2903.00,0.0138
2902.00,0.0132
2901.00,0.0126
2900.00,0.0120
2899.00,0.0115
2898.00,0.0110
2897.00,0.0105
2896.00,0.0100
2895.00,0.0096
2894.00,0.0093
2893.00,0.0089
2892.00,0.0086
2891.00,0.0083
2890.00,0.0081
2889.00,0.0078
2888.00,0.0076
2887.00,0.0074
2886.00,0.0073
2885.00,0.0071
2884.00,0.0070
2883.00,0.0068
2882.00,0.0067
2881.00,0.0065
2880.00,0.0064
2879.00,0.0063
2878.00,0.0062
2877.00,0.0061
2876.00,0.0060
2875.00,0.0059
2874.00,0.0058
2873.00,0.0057
2872.00,0.0057
2871.00,0.0056
2870.00,0.0056
2869.00,0.0056
2868.00,0.0056
2867.00,0.0057
2866.00,0.0058
2865.00,0.0059
2864.00,0.0061
2863.00,0.0063
2862.00,0.0065
2861.00,0.0068
2860.00,0.0072
2859.00,0.0075
2858.00,0.0078
2857.00,0.0082
2856.00,0.0085
2855.00,0.0089
2854.00,0.0092
2853.00,0.0094
2852.00,0.0097
2851.00,0.0098
2850.00,0.0099
2849.00,0.0099
2848.00,0.0098
2847.00,0.0097
2846.00,0.0094
2845.00,0.0091
2844.00,0.0087
2843.00,0.0083
2842.00,0.0077
2841.00,0.0072
2840.00,0.0067
2839.00,0.0061
2838.00,0.0056
2837.00,0.0051
2836.00,0.0047
2835.00,0.0043
2834.00,0.0040
2833.00,0.0038
2832.00,0.0036
2831.00,0.0034
2830.00,0.0033
2829.00,0.0032
2828.00,0.0030
2827.00,0.0030
2826.00,0.0029
2825.00,0.0028
2824.00,0.0028
2823.00,0.0027
2822.00,0.0027
2821.00,0.0026
2820.00,0.0026
2819.00,0.0026
2818.00,0.0025
2817.00,0.0025
2816.00,0.0025
2815.00,0.0025
2814.00,0.0025
2813.00,0.0025
2812.00,0.0025
2811.00,0.0025
2810.00,0.0025
2809.00,0.0025
2808.00,0.0024
2807.00,0.0024
2806.00,0.0024
2805.00,0.0024
2804.00,0.0024
2803.00,0.0023
2802.00,0.0023
2801.00,0.0023
2800.00,0.0023
2799.00,0.0023
2798.00,0.0023
2797.00,0.0023
2796.00,0.0022
2795.00,0.0022
2794.00,0.0022
2793.00,0.0022
2792.00,0.0022
2791.00,0.0022
2790.00,0.0022
2789.00,0.0021
2788.00,0.0021
2787.00,0.0021
2786.00,0.0021
2785.00,0.0021
2784.00,0.0021
2783.00,0.0021
2782.00,0.0021
2781.00,0.0021
2780.00,0.0021
2779.00,0.0021
2778.00,0.0021
2777.00,0.0021
2776.00,0.0021
2775.00,0.0021
2774.00,0.0021
2773.00,0.0021
2772.00,0.0021
2771.00,0.0021
2770.00,0.0020
2769.00,0.0020
2768.00,0.0020
2767.00,0.0020
2766.00,0.0020
2765.00,0.0020
2764.00,0.0020
2763.00,0.0019
2762.00,0.0019
2761.00,0.0019
2760.00,0.0019
2759.00,0.0019
2758.00,0.0019
2757.00,0.0019
2756.00,0.0019
2755.00,0.0019
2754.00,0.0019
2753.00,0.0019
2752.00,0.0019
2751.00,0.0019
2750.00,0.0019
2749.00,0.0019
2748.00,0.0019
2747.00,0.0019
2746.00,0.0019
2745.00,0.0019
2744.00,0.0019
2743.00,0.0019
2742.00,0.0019
2741.00,0.0019
2740.00,0.0019
2739.00,0.0019
2738.00,0.0019
2737.00,0.0019
2736.00,0.0019
2735.00,0.0019
2734.00,0.0019
2733.00,0.0019
2732.00,0.0019
2731.00,0.0019
2730.00,0.0019
2729.00,0.0020
2728.00,0.0020
2727.00,0.0020
2726.00,0.0020
2725.00,0.0020
2724.00,0.0020
2723.00,0.0020
2722.00,0.0019
2721.00,0.0019
2720.00,0.0019
2719.00,0.0019
2718.00,0.0020
2717.00,0.0019
2716.00,0.0019
2715.00,0.0019
2714.00,0.0019
2713.00,0.0019
2712.00,0.0019
2711.00,0.0019
2710.00,0.0019
2709.00,0.0019
2708.00,0.0019
2707.00,0.0019
2706.00,0.0019
2705.00,0.0019
2704.00,0.0019
2703.00,0.0019
2702.00,0.0019
2701.00,0.0019
2700.00,0.0019
2699.00,0.0019
2698.00,0.0019
2697.00,0.0019
2696.00,0.0019
2695.00,0.0019
2694.00,0.0019
2693.00,0.0019
2692.00,0.0019
2691.00,0.0019
2690.00,0.0019
2689.00,0.0019
2688.00,0.0019
2687.00,0.0019
2686.00,0.0019
2685.00,0.0019
2684.00,0.0019
2683.00,0.0019
2682.00,0.0019
2681.00,0.0019
2680.00,0.0019
2679.00,0.0019
2678.00,0.0019
2677.00,0.0019
2676.00,0.0018
2675.00,0.0018
2674.00,0.0019
2673.00,0.0019
2672.00,0.0019
2671.00,0.0019
2670.00,0.0019
2669.00,0.0019
2668.00,0.0019
2667.00,0.0019
2666.00,0.0020
2665.00,0.0020
2664.00,0.0020
2663.00,0.0020
2662.00,0.0021
2661.00,0.0021
2660.00,0.0021
2659.00,0.0022
2658.00,0.0022
2657.00,0.0022
2656.00,0.0022
2655.00,0.0022
2654.00,0.0022
2653.00,0.0022
2652.00,0.0022
2651.00,0.0022
2650.00,0.0022
2649.00,0.0022
2648.00,0.0022
2647.00,0.0022
2646.00,0.0022
2645.00,0.0022
2644.00,0.0022
2643.00,0.0022
2642.00,0.0022
2641.00,0.0022
2640.00,0.0022
2639.00,0.0022
2638.00,0.0022
2637.00,0.0023
2636.00,0.0023
2635.00,0.0023
2634.00,0.0023
2633.00,0.0023
2632.00,0.0023
2631.00,0.0023
2630.00,0.0023
2629.00,0.0023
2628.00,0.0022
2627.00,0.0022
2626.00,0.0022
2625.00,0.0022
2624.00,0.0022
2623.00,0.0021
2622.00,0.0021
2621.00,0.0021
2620.00,0.0020
2619.00,0.0021
2618.00,0.0021
2617.00,0.0021
2616.00,0.0021
2615.00,0.0021
2614.00,0.0021
2613.00,0.0021
2612.00,0.0021
2611.00,0.0021
2610.00,0.0021
2609.00,0.0021
2608.00,0.0021
2607.00,0.0021
2606.00,0.0021
2605.00,0.0021
2604.00,0.0021
2603.00,0.0021
2602.00,0.0021
2601.00,0.0021
2600.00,0.0021
2599.00,0.0020
2598.00,0.0020
2597.00,0.0020
2596.00,0.0020
2595.00,0.0020
2594.00,0.0020
2593.00,0.0019
2592.00,0.0019
2591.00,0.0019
2590.00,0.0018
2589.00,0.0018
2588.00,0.0018
2587.00,0.0019
2586.00,0.0019
2585.00,0.0019
2584.00,0.0019
2583.00,0.0019
2582.00,0.0019
2581.00,0.0019
2580.00,0.0019
2579.00,0.0019
2578.00,0.0019
2577.00,0.0019
2576.00,0.0018
2575.00,0.0018
2574.00,0.0018
2573.00,0.0018
2572.00,0.0018
2571.00,0.0018
2570.00,0.0018
2569.00,0.0018
2568.00,0.0017
2567.00,0.0017
2566.00,0.0017
2565.00,0.0018
2564.00,0.0018
2563.00,0.0018
2562.00,0.0018
2561.00,0.0018
2560.00,0.0018
2559.00,0.0017
2558.00,0.0017
2557.00,0.0017
2556.00,0.0017
2555.00,0.0017
2554.00,0.0017
2553.00,0.0017
2552.00,0.0017
2551.00,0.0017
2550.00,0.0018
2549.00,0.0018
2548.00,0.0018
2547.00,0.0018
2546.00,0.0018
2545.00,0.0017
2544.00,0.0017
2543.00,0.0017
2542.00,0.0017
2541.00,0.0017
2540.00,0.0017
2539.00,0.0017
2538.00,0.0017
2537.00,0.0017
2536.00,0.0017
2535.00,0.0017
2534.00,0.0017
2533.00,0.0016
2532.00,0.0016
2531.00,0.0016
2530.00,0.0016
2529.00,0.0016
2528.00,0.0016
2527.00,0.0016
2526.00,0.0016
2525.00,0.0016
2524.00,0.0016
2523.00,0.0016
2522.00,0.0016
2521.00,0.0016
2520.00,0.0017
2519.00,0.0017
2518.00,0.0017
2517.00,0.0017
2516.00,0.0017
2515.00,0.0017
2514.00,0.0017
2513.00,0.0017
2512.00,0.0017
2511.00,0.0017
2510.00,0.0017
2509.00,0.0017
2508.00,0.0016
2507.00,0.0016
2506.00,0.0016
2505.00,0.0016
2504.00,0.0016
2503.00,0.0017
2502.00,0.0017
2501.00,0.0017
2500.00,0.0016
2499.00,0.0016
2498.00,0.0016
2497.00,0.0016
2496.00,0.0017
2495.00,0.0017
2494.00,0.0017
2493.00,0.0017
2492.00,0.0017
2491.00,0.0016
2490.00,0.0016
2489.00,0.0016
2488.00,0.0016
2487.00,0.0016
2486.00,0.0016
2485.00,0.0016
2484.00,0.0016
2483.00,0.0016
2482.00,0.0016
2481.00,0.0016
2480.00,0.0015
2479.00,0.0015
2478.00,0.0015
2477.00,0.0015
2476.00,0.0015
2475.00,0.0015
2474.00,0.0015
2473.00,0.0015
2472.00,0.0016
2471.00,0.0016
2470.00,0.0016
2469.00,0.0016
2468.00,0.0015
2467.00,0.0015
2466.00,0.0015
2465.00,0.0015
2464.00,0.0015
2463.00,0.0015
2462.00,0.0015
2461.00,0.0016
2460.00,0.0016
2459.00,0.0016
2458.00,0.0016
2457.00,0.0016
2456.00,0.0016
2455.00,0.0016
2454.00,0.0016
2453.00,0.0016
2452.00,0.0016
2451.00,0.0016
2450.00,0.0016
2449.00,0.0016
2448.00,0.0016
2447.00,0.0016
2446.00,0.0016
2445.00,0.0015
2444.00,0.0015
2443.00,0.0014
2442.00,0.0015
2441.00,0.0015
2440.00,0.0015
2439.00,0.0014
2438.00,0.0014
2437.00,0.0014
2436.00,0.0014
2435.00,0.0014
2434.00,0.0014
2433.00,0.0014
2432.00,0.0014
2431.00,0.0014
2430.00,0.0014
2429.00,0.0014
2428.00,0.0014
2427.00,0.0014
2426.00,0.0014
2425.00,0.0014
2424.00,0.0013
2423.00,0.0013
2422.00,0.0013
2421.00,0.0013
2420.00,0.0013
2419.00,0.0013
2418.00,0.0013
2417.00,0.0013
2416.00,0.0013
2415.00,0.0013
2414.00,0.0013
2413.00,0.0013
2412.00,0.0013
2411.00,0.0013
2410.00,0.0013
2409.00,0.0013
2408.00,0.0013
2407.00,0.0013
2406.00,0.0013
2405.00,0.0013
2404.00,0.0013
2403.00,0.0013
2402.00,0.0013
2401.00,0.0013
2400.00,0.0013
2399.00,0.0013
2398.00,0.0013
2397.00,0.0013
2396.00,0.0013
2395.00,0.0013
2394.00,0.0013
2393.00,0.0013
2392.00,0.0012
2391.00,0.0012
2390.00,0.0012
2389.00,0.0012
2388.00,0.0012
2387.00,0.0012
2386.00,0.0012
2385.00,0.0013
2384.00,0.0013
2383.00,0.0012
2382.00,0.0012
2381.00,0.0012
2380.00,0.0012
2379.00,0.0012
2378.00,0.0012
2377.00,0.0012
2376.00,0.0012
2375.00,0.0012
2374.00,0.0012
2373.00,0.0012
2372.00,0.0011
2371.00,0.0011
2370.00,0.0011
2369.00,0.0011
2368.00,0.0011
2367.00,0.0012
2366.00,0.0012
2365.00,0.0013
2364.00,0.0013
2363.00,0.0014
2362.00,0.0014
2361.00,0.0014
2360.00,0.0014
2359.00,0.0014
2358.00,0.0014
2357.00,0.0014
2356.00,0.0014
2355.00,0.0015
2354.00,0.0015
2353.00,0.0015
2352.00,0.0015
2351.00,0.0015
2350.00,0.0015
2349.00,0.0015
2348.00,0.0016
2347.00,0.0016
2346.00,0.0016
2345.00,0.0017
2344.00,0.0017
2343.00,0.0017
2342.00,0.0017
2341.00,0.0018
2340.00,0.0018
2339.00,0.0018
2338.00,0.0018
2337.00,0.0017
2336.00,0.0017
2335.00,0.0017
2334.00,0.0018
2333.00,0.0018
2332.00,0.0018
2331.00,0.0017
2330.00,0.0017
2329.00,0.0018
2328.00,0.0020
2327.00,0.0022
2326.00,0.0025
2325.00,0.0026
2324.00,0.0026
2323.00,0.0025
2322.00,0.0023
2321.00,0.0022
2320.00,0.0021
2319.00,0.0020
2318.00,0.0020
2317.00,0.0020
2316.00,0.0020
2315.00,0.0020
2314.00,0.0020
2313.00,0.0020
2312.00,0.0020
2311.00,0.0020
2310.00,0.0020
2309.00,0.0020
2308.00,0.0020
2307.00,0.0020
2306.00,0.0020
2305.00,0.0020
2304.00,0.0020
2303.00,0.0020
2302.00,0.0020
2301.00,0.0020
2300.00,0.0020
2299.00,0.0020
2298.00,0.0020
2297.00,0.0020
2296.00,0.0020
2295.00,0.0021
2294.00,0.0021
2293.00,0.0022
2292.00,0.0022
2291.00,0.0022
2290.00,0.0022
2289.00,0.0022
2288.00,0.0022
2287.00,0.0022
2286.00,0.0022
2285.00,0.0022
2284.00,0.0022
2283.00,0.0021
2282.00,0.0021
2281.00,0.0020
2280.00,0.0019
2279.00,0.0019
2278.00,0.0019
2277.00,0.0019
2276.00,0.0019
2275.00,0.0019
2274.00,0.0018
2273.00,0.0018
2272.00,0.0017
2271.00,0.0017
2270.00,0.0017
2269.00,0.0017
2268.00,0.0017
2267.00,0.0016
2266.00,0.0016
2265.00,0.0016
2264.00,0.0016
2263.00,0.0016
2262.00,0.0017
2261.00,0.0018
2260.00,0.0018
2259.00,0.0019
2258.00,0.0018
2257.00,0.0018
2256.00,0.0017
2255.00,0.0016
2254.00,0.0016
2253.00,0.0017
2252.00,0.0017
2251.00,0.0017
2250.00,0.0016
2249.00,0.0015
2248.00,0.0016
2247.00,0.0016
2246.00,0.0016
2245.00,0.0016
2244.00,0.0016
2243.00,0.0016
2242.00,0.0016
2241.00,0.0016
2240.00,0.0017
2239.00,0.0017
2238.00,0.0017
2237.00,0.0016
2236.00,0.0017
2235.00,0.0017
2234.00,0.0017
2233.00,0.0017
2232.00,0.0017
2231.00,0.0016
2230.00,0.0015
2229.00,0.0015
2228.00,0.0015
2227.00,0.0015
2226.00,0.0015
2225.00,0.0015
2224.00,0.0015
2223.00,0.0015
2222.00,0.0016
2221.00,0.0017
2220.00,0.0018
2219.00,0.0018
2218.00,0.0018
2217.00,0.0017
2216.00,0.0016
2215.00,0.0016
2214.00,0.0016
2213.00,0.0017
2212.00,0.0016
2211.00,0.0016
2210.00,0.0015
2209.00,0.0014
2208.00,0.0014
2207.00,0.0014
2206.00,0.0015
2205.00,0.0016
2204.00,0.0017
2203.00,0.0017
2202.00,0.0017
2201.00,0.0016
2200.00,0.0015
2199.00,0.0015
2198.00,0.0015
2197.00,0.0016
2196.00,0.0017
2195.00,0.0017
2194.00,0.0017
2193.00,0.0016
2192.00,0.0015
2191.00,0.0014
2190.00,0.0015
2189.00,0.0016
2188.00,0.0017
2187.00,0.0017
2186.00,0.0017
2185.00,0.0016
2184.00,0.0015
2183.00,0.0013
2182.00,0.0012
2181.00,0.0012
2180.00,0.0013
2179.00,0.0014
2178.00,0.0014
2177.00,0.0013
2176.00,0.0012
2175.00,0.0012
2174.00,0.0012
2173.00,0.0014
2172.00,0.0014
2171.00,0.0015
2170.00,0.0016
2169.00,0.0018
2168.00,0.0020
2167.00,0.0022
2166.00,0.0023
2165.00,0.0024
2164.00,0.0026
2163.00,0.0027
2162.00,0.0025
2161.00,0.0017
2160.00,0.0006
2159.00,-0.0004
2158.00,-0.0010
2157.00,-0.0011
2156.00,-0.0009
2155.00,-0.0007
2154.00,-0.0005
2153.00,-0.0002
2152.00,-0.0000
2151.00,0.0001
2150.00,0.0000
2149.00,-0.0000
2148.00,-0.0001
2147.00,-0.0001
2146.00,-0.0001
2145.00,-0.0001
2144.00,0.0000
2143.00,0.0001
2142.00,0.0002
2141.00,0.0002
2140.00,0.0002
2139.00,0.0002
2138.00,0.0002
2137.00,0.0001
2136.00,0.0000
2135.00,-0.0001
2134.00,-0.0002
2133.00,-0.0002
2132.00,-0.0001
2131.00,0.0001
2130.00,0.0002
2129.00,0.0003
2128.00,0.0004
2127.00,0.0005
2126.00,0.0005
2125.00,0.0006
2124.00,0.0007
2123.00,0.0008
2122.00,0.0008
2121.00,0.0008
2120.00,0.0008
2119.00,0.0009
2118.00,0.0010
2117.00,0.0012
2116.00,0.0013
2115.00,0.0013
2114.00,0.0013
2113.00,0.0013
2112.00,0.0013
2111.00,0.0013
2110.00,0.0013
2109.00,0.0012
2108.00,0.0012
2107.00,0.0011
2106.00,0.0011
2105.00,0.0011
2104.00,0.0011
2103.00,0.0010
2102.00,0.0010
2101.00,0.0011
2100.00,0.0011
2099.00,0.0011
2098.00,0.0010
2097.00,0.0009
2096.00,0.0008
2095.00,0.0007
2094.00,0.0008
2093.00,0.0009
2092.00,0.0010
2091.00,0.0011
2090.00,0.0012
2089.00,0.0012
2088.00,0.0012
2087.00,0.0012
2086.00,0.0012
2085.00,0.0013
2084.00,0.0013
2083.00,0.0013
2082.00,0.0014
2081.00,0.0014
2080.00,0.0014
2079.00,0.0015
2078.00,0.0014
2077.00,0.0013
2076.00,0.0013
2075.00,0.0012
2074.00,0.0012
2073.00,0.0012
2072.00,0.0012
2071.00,0.0012
2070.00,0.0012
2069.00,0.0012
2068.00,0.0012
2067.00,0.0011
2066.00,0.0010
2065.00,0.0010
2064.00,0.0010
2063.00,0.0011
2062.00,0.0011
2061.00,0.0011
2060.00,0.0010
2059.00,0.0010
2058.00,0.0010
2057.00,0.0010
2056.00,0.0010
2055.00,0.0009
2054.00,0.0011
2053.00,0.0014
2052.00,0.0017
2051.00,0.0019
2050.00,0.0017
2049.00,0.0014
2048.00,0.0011
2047.00,0.0010
2046.00,0.0010
2045.00,0.0011
2044.00,0.0013
2043.00,0.0013
2042.00,0.0013
2041.00,0.0013
2040.00,0.0012
2039.00,0.0011
2038.00,0.0011
2037.00,0.0011
2036.00,0.0011
2035.00,0.0011
2034.00,0.0010
2033.00,0.0010
2032.00,0.0009
2031.00,0.0008
2030.00,0.0007
2029.00,0.0005
2028.00,0.0003
2027.00,0.0002
2026.00,0.0002
2025.00,0.0003
2024.00,0.0005
2023.00,0.0007
2022.00,0.0008
2021.00,0.0008
2020.00,0.0008
2019.00,0.0007
2018.00,0.0007
2017.00,0.0007
2016.00,0.0008
2015.00,0.0008
2014.00,0.0008
2013.00,0.0008
2012.00,0.0009
2011.00,0.0009
2010.00,0.0008
2009.00,0.0006
2008.00,0.0005
2007.00,0.0003
2006.00,0.0002
2005.00,0.0001
2004.00,0.0002
2003.00,0.0003
2002.00,0.0004
2001.00,0.0006
2000.00,0.0008
1999.00,0.0009
1998.00,0.0010
1997.00,0.0011
1996.00,0.0011
1995.00,0.0012
1994.00,0.0013
1993.00,0.0014
1992.00,0.0015
1991.00,0.0016
1990.00,0.0017
1989.00,0.0018
1988.00,0.0018
1987.00,0.0018
1986.00,0.0018
1985.00,0.0017
1984.00,0.0018
1983.00,0.0019
1982.00,0.0021
1981.00,0.0021
1980.00,0.0020
1979.00,0.0017
1978.00,0.0013
1977.00,0.0010
1976.00,0.0008
1975.00,0.0006
1974.00,0.0005
1973.00,0.0005
1972.00,0.0006
1971.00,0.0008
1970.00,0.0011
1969.00,0.0013
1968.00,0.0015
1967.00,0.0015
1966.00,0.0016
1965.00,0.0016
1964.00,0.0016
1963.00,0.0016
1962.00,0.0017
1961.00,0.0017
1960.00,0.0016
1959.00,0.0016
1958.00,0.0016
1957.00,0.0017
1956.00,0.0019
1955.00,0.0021
1954.00,0.0023
1953.00,0.0024
1952.00,0.0025
1951.00,0.0027
1950.00,0.0028
1949.00,0.0028
1948.00,0.0029
1947.00,0.0030
1946.00,0.0031
1945.00,0.0032
1944.00,0.0033
1943.00,0.0033
1942.00,0.0033
1941.00,0.0033
1940.00,0.0031
1939.00,0.0030
1938.00,0.0029
1937.00,0.0027
1936.00,0.0026
1935.00,0.0024
1934.00,0.0023
1933.00,0.0022
1932.00,0.0020
1931.00,0.0018
1930.00,0.0017
1929.00,0.0016
1928.00,0.0015
1927.00,0.0014
1926.00,0.0013
1925.00,0.0013
1924.00,0.0013
1923.00,0.0014
1922.00,0.0014
1921.00,0.0014
1920.00,0.0013
1919.00,0.0013
1918.00,0.0012
1917.00,0.0012
1916.00,0.0012
1915.00,0.0012
1914.00,0.0012
1913.00,0.0012
1912.00,0.0011
1911.00,0.0011
1910.00,0.0011
1909.00,0.0011
1908.00,0.0011
1907.00,0.0012
1906.00,0.0012
1905.00,0.0012
1904.00,0.0012
1903.00,0.0012
1902.00,0.0012
1901.00,0.0013
1900.00,0.0014
1899.00,0.0014
1898.00,0.0015
1897.00,0.0016
1896.00,0.0017
1895.00,0.0018
1894.00,0.0019
1893.00,0.0020
1892.00,0.0021
1891.00,0.0022
1890.00,0.0022
1889.00,0.0023
1888.00,0.0024
1887.00,0.0025
1886.00,0.0025
1885.00,0.0026
1884.00,0.0026
1883.00,0.0027
1882.00,0.0027
1881.00,0.0027
1880.00,0.0028
1879.00,0.0028
1878.00,0.0028
1877.00,0.0029
1876.00,0.0029
1875.00,0.0030
1874.00,0.0031
1873.00,0.0031
1872.00,0.0031
1871.00,0.0031
1870.00,0.0031
1869.00,0.0031
1868.00,0.0030
1867.00,0.0030
1866.00,0.0030
1865.00,0.0029
1864.00,0.0028
1863.00,0.0027
1862.00,0.0026
1861.00,0.0025
1860.00,0.0023
1859.00,0.0022
1858.00,0.0020
1857.00,0.0019
1856.00,0.0019
1855.00,0.0018
1854.00,0.0017
1853.00,0.0016
1852.00,0.0015
1851.00,0.0015
1850.00,0.0015
1849.00,0.0015
1848.00,0.0015
1847.00,0.0015
1846.00,0.0015
1845.00,0.0014
1844.00,0.0014
1843.00,0.0014
1842.00,0.0014
1841.00,0.0014
1840.00,0.0014
1839.00,0.0014
1838.00,0.0014
1837.00,0.0014
1836.00,0.0014
1835.00,0.0015
1834.00,0.0015
1833.00,0.0016
1832.00,0.0016
1831.00,0.0016
1830.00,0.0017
1829.00,0.0017
1828.00,0.0017
1827.00,0.0018
1826.00,0.0018
1825.00,0.0019
1824.00,0.0020
1823.00,0.0021
1822.00,0.0021
1821.00,0.0022
1820.00,0.0022
1819.00,0.0022
1818.00,0.0022
1817.00,0.0023
1816.00,0.0024
1815.00,0.0025
1814.00,0.0027
1813.00,0.0028
1812.00,0.0029
1811.00,0.0030
1810.00,0.0031
1809.00,0.0031
1808.00,0.0032
1807.00,0.0033
1806.00,0.0034
1805.00,0.0034
1804.00,0.0035
1803.00,0.0035
1802.00,0.0036
1801.00,0.0036
1800.00,0.0035
1799.00,0.0035
1798.00,0.0035
1797.00,0.0034
1796.00,0.0033
1795.00,0.0031
1794.00,0.0030
1793.00,0.0028
1792.00,0.0027
1791.00,0.0025
1790.00,0.0024
1789.00,0.0023
1788.00,0.0022
1787.00,0.0022
1786.00,0.0021
1785.00,0.0021
1784.00,0.0020
1783.00,0.0020
1782.00,0.0021
1781.00,0.0021
1780.00,0.0021
1779.00,0.0021
1778.00,0.0021
1777.00,0.0021
1776.00,0.0021
1775.00,0.0021
1774.00,0.0021
1773.00,0.0021
1772.00,0.0022
1771.00,0.0022
1770.00,0.0022
1769.00,0.0023
1768.00,0.0022
1767.00,0.0022
1766.00,0.0022
1765.00,0.0022
1764.00,0.0023
1763.00,0.0023
1762.00,0.0024
1761.00,0.0025
1760.00,0.0026
1759.00,0.0028
1758.00,0.0029
1757.00,0.0030
1756.00,0.0031
1755.00,0.0033
1754.00,0.0034
1753.00,0.0035
1752.00,0.0037
1751.00,0.0038
1750.00,0.0040
1749.00,0.0041
1748.00,0.0042
1747.00,0.0043
1746.00,0.0044
1745.00,0.0045
1744.00,0.0046
1743.00,0.0047
1742.00,0.0047
1741.00,0.0048
1740.00,0.0048
1739.00,0.0048
1738.00,0.0048
1737.00,0.0048
1736.00,0.0049
1735.00,0.0049
1734.00,0.0048
1733.00,0.0048
1732.00,0.0047
1731.00,0.0046
1730.00,0.0045
1729.00,0.0044
1728.00,0.0043
1727.00,0.0042
1726.00,0.0041
1725.00,0.0040
1724.00,0.0039
1723.00,0.0038
1722.00,0.0038
1721.00,0.0037
1720.00,0.0037
1719.00,0.0036
1718.00,0.0036
1717.00,0.0035
1716.00,0.0035
1715.00,0.0034
1714.00,0.0034
1713.00,0.0033
1712.00,0.0033
1711.00,0.0033
1710.00,0.0033
1709.00,0.0032
1708.00,0.0032
1707.00,0.0032
1706.00,0.0031
1705.00,0.0031
1704.00,0.0031
1703.00,0.0031
1702.00,0.0031
1701.00,0.0031
1700.00,0.0031
1699.00,0.0031
1698.00,0.0031
1697.00,0.0030
1696.00,0.0030
1695.00,0.0029
1694.00,0.0029
1693.00,0.0029
1692.00,0.0029
1691.00,0.0029
1690.00,0.0029
1689.00,0.0029
1688.00,0.0029
1687.00,0.0029
1686.00,0.0030
1685.00,0.0030
1684.00,0.0031
1683.00,0.0032
1682.00,0.0032
1681.00,0.0032
1680.00,0.0032
1679.00,0.0032
1678.00,0.0032
1677.00,0.0032
1676.00,0.0032
1675.00,0.0033
1674.00,0.0033
1673.00,0.0034
1672.00,0.0034
1671.00,0.0034
1670.00,0.0034
1669.00,0.0034
1668.00,0.0034
1667.00,0.0034
1666.00,0.0033
1665.00,0.0033
1664.00,0.0033
1663.00,0.0032
1662.00,0.0032
1661.00,0.0032
1660.00,0.0032
1659.00,0.0031
1658.00,0.0031
1657.00,0.0031
1656.00,0.0030
1655.00,0.0030
1654.00,0.0029
1653.00,0.0029
1652.00,0.0028
1651.00,0.0028
1650.00,0.0028
1649.00,0.0028
1648.00,0.0028
1647.00,0.0028
1646.00,0.0028
1645.00,0.0027
1644.00,0.0027
1643.00,0.0027
1642.00,0.0027
1641.00,0.0027
1640.00,0.0027
1639.00,0.0027
1638.00,0.0027
1637.00,0.0027
1636.00,0.0027
1635.00,0.0027
1634.00,0.0027
1633.00,0.0027
1632.00,0.0027
1631.00,0.0027
1630.00,0.0027
1629.00,0.0028
1628.00,0.0028
1627.00,0.0028
1626.00,0.0029
1625.00,0.0029
1624.00,0.0029
1623.00,0.0029
1622.00,0.0030
1621.00,0.0030
1620.00,0.0030
1619.00,0.0031
1618.00,0.0031
1617.00,0.0032
1616.00,0.0033
1615.00,0.0035
1614.00,0.0038
1613.00,0.0040
1612.00,0.0044
1611.00,0.0050
1610.00,0.0057
1609.00,0.0067
1608.00,0.0080
1607.00,0.0096
1606.00,0.0116
1605.00,0.0137
1604.00,0.0160
1603.00,0.0180
1602.00,0.0194
1601.00,0.0199
1600.00,0.0195
1599.00,0.0181
1598.00,0.0162
1597.00,0.0141
1596.00,0.0122
1595.00,0.0105
1594.00,0.0092
1593.00,0.0082
1592.00,0.0074
1591.00,0.0069
1590.00,0.0065
1589.00,0.0062
1588.00,0.0063
1587.00,0.0066
1586.00,0.0072
1585.00,0.0079
1584.00,0.0084
1583.00,0.0086
1582.00,0.0082
1581.00,0.0074
1580.00,0.0065
1579.00,0.0057
1578.00,0.0049
1577.00,0.0043
1576.00,0.0038
1575.00,0.0035
1574.00,0.0033
1573.00,0.0032
1572.00,0.0031
1571.00,0.0030
1570.00,0.0029
1569.00,0.0028
1568.00,0.0028
1567.00,0.0028
1566.00,0.0027
1565.00,0.0027
1564.00,0.0026
1563.00,0.0026
1562.00,0.0026
1561.00,0.0026
1560.00,0.0026
1559.00,0.0027
1558.00,0.0028
1557.00,0.0029
1556.00,0.0029
1555.00,0.0030
1554.00,0.0030
1553.00,0.0031
1552.00,0.0032
1551.00,0.0033
1550.00,0.0034
1549.00,0.0035
1548.00,0.0035
1547.00,0.0036
1546.00,0.0037
1545.00,0.0037
1544.00,0.0037
1543.00,0.0037
1542.00,0.0037
1541.00,0.0036
1540.00,0.0035
1539.00,0.0035
1538.00,0.0035
1537.00,0.0034
1536.00,0.0034
1535.00,0.0034
1534.00,0.0033
1533.00,0.0032
1532.00,0.0032
1531.00,0.0031
1530.00,0.0031
1529.00,0.0030
1528.00,0.0030
1527.00,0.0030
1526.00,0.0029
1525.00,0.0029
1524.00,0.0028
1523.00,0.0028
1522.00,0.0028
1521.00,0.0028
1520.00,0.0028
1519.00,0.0029
1518.00,0.0030
1517.00,0.0030
1516.00,0.0031
1515.00,0.0031
1514.00,0.0031
1513.00,0.0032
1512.00,0.0032
1511.00,0.0033
1510.00,0.0035
1509.00,0.0036
1508.00,0.0037
1507.00,0.0039
1506.00,0.0042
1505.00,0.0045
1504.00,0.0049
1503.00,0.0054
1502.00,0.0061
1501.00,0.0071
1500.00,0.0087
1499.00,0.0111
1498.00,0.0150
1497.00,0.0210
1496.00,0.0291
1495.00,0.0376
1494.00,0.0447
1493.00,0.0490
1492.00,0.0494
1491.00,0.0454
1490.00,0.0381
1489.00,0.0302
1488.00,0.0238
1487.00,0.0191
1486.00,0.0158
1485.00,0.0132
1484.00,0.0113
1483.00,0.0098
1482.00,0.0086
1481.00,0.0076
1480.00,0.0069
1479.00,0.0065
1478.00,0.0061
1477.00,0.0058
1476.00,0.0056
1475.00,0.0055
1474.00,0.0054
1473.00,0.0053
1472.00,0.0053
1471.00,0.0053
1470.00,0.0054
1469.00,0.0055
1468.00,0.0056
1467.00,0.0058
1466.00,0.0060
1465.00,0.0062
1464.00,0.0066
1463.00,0.0069
1462.00,0.0074
1461.00,0.0082
1460.00,0.0092
1459.00,0.0109
1458.00,0.0143
1457.00,0.0203
1456.00,0.0282
1455.00,0.0360
1454.00,0.0427
1453.00,0.0478
1452.00,0.0505
1451.00,0.0502
1450.00,0.0475
1449.00,0.0437
1448.00,0.0397
1447.00,0.0360
1446.00,0.0330
1445.00,0.0305
1444.00,0.0282
1443.00,0.0258
1442.00,0.0237
1441.00,0.0218
1440.00,0.0202
1439.00,0.0187
1438.00,0.0172
1437.00,0.0156
1436.00,0.0138
1435.00,0.0124
1434.00,0.0112
1433.00,0.0103
1432.00,0.0094
1431.00,0.0086
1430.00,0.0079
1429.00,0.0073
1428.00,0.0068
1427.00,0.0064
1426.00,0.0061
1425.00,0.0058
1424.00,0.0056
1423.00,0.0054
1422.00,0.0053
1421.00,0.0051
1420.00,0.0050
1419.00,0.0049
1418.00,0.0049
1417.00,0.0048
1416.00,0.0047
1415.00,0.0046
1414.00,0.0045
1413.00,0.0044
1412.00,0.0044
1411.00,0.0043
1410.00,0.0042
1409.00,0.0042
1408.00,0.0042
1407.00,0.0041
1406.00,0.0041
1405.00,0.0041
1404.00,0.0041
1403.00,0.0040
1402.00,0.0040
1401.00,0.0040
1400.00,0.0040
1399.00,0.0040
1398.00,0.0040
1397.00,0.0041
1396.00,0.0041
1395.00,0.0042
1394.00,0.0044
1393.00,0.0045
1392.00,0.0048
1391.00,0.0050
1390.00,0.0053
1389.00,0.0057
1388.00,0.0060
1387.00,0.0064
1386.00,0.0068
1385.00,0.0071
1384.00,0.0074
1383.00,0.0077
1382.00,0.0080
1381.00,0.0083
1380.00,0.0086
1379.00,0.0090
1378.00,0.0093
1377.00,0.0097
1376.00,0.0100
1375.00,0.0102
1374.00,0.0104
1373.00,0.0106
1372.00,0.0106
1371.00,0.0107
1370.00,0.0107
1369.00,0.0106
1368.00,0.0106
1367.00,0.0105
1366.00,0.0105
1365.00,0.0105
1364.00,0.0104
1363.00,0.0104
1362.00,0.0103
1361.00,0.0101
1360.00,0.0100
1359.00,0.0099
1358.00,0.0097
1357.00,0.0096
1356.00,0.0096
1355.00,0.0095
1354.00,0.0095
1353.00,0.0095
1352.00,0.0095
1351.00,0.0095
1350.00,0.0095
1349.00,0.0094
1348.00,0.0094
1347.00,0.0093
1346.00,0.0091
1345.00,0.0090
1344.00,0.0088
1343.00,0.0086
1342.00,0.0084
1341.00,0.0083
1340.00,0.0082
1339.00,0.0081
1338.00,0.0081
1337.00,0.0081
1336.00,0.0082
1335.00,0.0083
1334.00,0.0085
1333.00,0.0087
1332.00,0.0090
1331.00,0.0092
1330.00,0.0094
1329.00,0.0095
1328.00,0.0095
1327.00,0.0095
1326.00,0.0094
1325.00,0.0093
1324.00,0.0091
1323.00,0.0090
1322.00,0.0089
1321.00,0.0089
1320.00,0.0089
1319.00,0.0089
1318.00,0.0089
1317.00,0.0090
1316.00,0.0091
1315.00,0.0092
1314.00,0.0093
1313.00,0.0094
1312.00,0.0094
1311.00,0.0094
1310.00,0.0093
1309.00,0.0093
1308.00,0.0091
1307.00,0.0090
1306.00,0.0088
1305.00,0.0087
1304.00,0.0085
1303.00,0.0084
1302.00,0.0082
1301.00,0.0081
1300.00,0.0079
1299.00,0.0078
1298.00,0.0077
1297.00,0.0077
1296.00,0.0077
1295.00,0.0076
1294.00,0.0076
1293.00,0.0075
1292.00,0.0075
1291.00,0.0074
1290.00,0.0073
1289.00,0.0073
1288.00,0.0072
1287.00,0.0072
1286.00,0.0072
1285.00,0.0071
1284.00,0.0071
1283.00,0.0071
1282.00,0.0071
1281.00,0.0070
1280.00,0.0070
1279.00,0.0069
1278.00,0.0068
1277.00,0.0067
1276.00,0.0066
1275.00,0.0064
1274.00,0.0063
1273.00,0.0061
1272.00,0.0060
1271.00,0.0059
1270.00,0.0057
1269.00,0.0056
1268.00,0.0055
1267.00,0.0055
1266.00,0.0054
1265.00,0.0053
1264.00,0.0053
1263.00,0.0053
1262.00,0.0052
1261.00,0.0052
1260.00,0.0052
1259.00,0.0052
1258.00,0.0052
1257.00,0.0052
1256.00,0.0052
1255.00,0.0052
1254.00,0.0053
1253.00,0.0053
1252.00,0.0054
1251.00,0.0054
1250.00,0.0054
1249.00,0.0055
1248.00,0.0055
1247.00,0.0056
1246.00,0.0056
1245.00,0.0057
1244.00,0.0057
1243.00,0.0057
1242.00,0.0057
1241.00,0.0057
1240.00,0.0057
1239.00,0.0057
1238.00,0.0057
1237.00,0.0057
1236.00,0.0057
1235.00,0.0057
1234.00,0.0057
1233.00,0.0057
1232.00,0.0057
1231.00,0.0057
1230.00,0.0057
1229.00,0.0058
1228.00,0.0058
1227.00,0.0058
1226.00,0.0058
1225.00,0.0058
1224.00,0.0058
1223.00,0.0058
1222.00,0.0058
1221.00,0.0058
1220.00,0.0058
1219.00,0.0058
1218.00,0.0059
1217.00,0.0059
1216.00,0.0060
1215.00,0.0060
1214.00,0.0061
1213.00,0.0062
1212.00,0.0063
1211.00,0.0064
1210.00,0.0065
1209.00,0.0066
1208.00,0.0067
1207.00,0.0068
1206.00,0.0070
1205.00,0.0073
1204.00,0.0075
1203.00,0.0077
1202.00,0.0079
1201.00,0.0080
1200.00,0.0082
1199.00,0.0084
1198.00,0.0085
1197.00,0.0086
1196.00,0.0086
1195.00,0.0087
1194.00,0.0087
1193.00,0.0088
1192.00,0.0088
1191.00,0.0088
1190.00,0.0089
1189.00,0.0090
1188.00,0.0091
1187.00,0.0094
1186.00,0.0098
1185.00,0.0102
1184.00,0.0107
1183.00,0.0111
1182.00,0.0115
1181.00,0.0116
1180.00,0.0113
1179.00,0.0108
1178.00,0.0101
1177.00,0.0094
1176.00,0.0086
1175.00,0.0080
1174.00,0.0076
1173.00,0.0073
1172.00,0.0070
1171.00,0.0069
1170.00,0.0067
1169.00,0.0066
1168.00,0.0066
1167.00,0.0066
1166.00,0.0066
1165.00,0.0067
1164.00,0.0068
1163.00,0.0069
1162.00,0.0072
1161.00,0.0076
1160.00,0.0081
1159.00,0.0088
1158.00,0.0095
1157.00,0.0103
1156.00,0.0109
1155.00,0.0113
1154.00,0.0113
1153.00,0.0109
1152.00,0.0102
1151.00,0.0093
1150.00,0.0084
1149.00,0.0076
1148.00,0.0070
1147.00,0.0065
1146.00,0.0061
1145.00,0.0058
1144.00,0.0056
1143.00,0.0054
1142.00,0.0052
1141.00,0.0050
1140.00,0.0049
1139.00,0.0048
1138.00,0.0047
1137.00,0.0047
1136.00,0.0046
1135.00,0.0046
1134.00,0.0046
1133.00,0.0045
1132.00,0.0046
1131.00,0.0046
1130.00,0.0046
1129.00,0.0046
1128.00,0.0047
1127.00,0.0047
1126.00,0.0047
1125.00,0.0048
1124.00,0.0049
1123.00,0.0050
1122.00,0.0052
1121.00,0.0054
1120.00,0.0055
1119.00,0.0057
1118.00,0.0059
1117.00,0.0061
1116.00,0.0063
1115.00,0.0066
1114.00,0.0067
1113.00,0.0068
1112.00,0.0069
1111.00,0.0069
1110.00,0.0069
1109.00,0.0069
1108.00,0.0068
1107.00,0.0068
1106.00,0.0067
1105.00,0.0067
1104.00,0.0067
1103.00,0.0067
1102.00,0.0067
1101.00,0.0068
1100.00,0.0069
1099.00,0.0069
1098.00,0.0070
1097.00,0.0071
1096.00,0.0072
1095.00,0.0073
1094.00,0.0074
1093.00,0.0074
1092.00,0.0075
1091.00,0.0076
1090.00,0.0077
1089.00,0.0079
1088.00,0.0081
1087.00,0.0083
1086.00,0.0086
1085.00,0.0088
1084.00,0.0092
1083.00,0.0095
1082.00,0.0099
1081.00,0.0103
1080.00,0.0106
1079.00,0.0110
1078.00,0.0113
1077.00,0.0118
1076.00,0.0123
1075.00,0.0129
1074.00,0.0135
1073.00,0.0142
1072.00,0.0148
1071.00,0.0153
1070.00,0.0157
1069.00,0.0159
1068.00,0.0159
1067.00,0.0157
1066.00,0.0153
1065.00,0.0148
1064.00,0.0142
1063.00,0.0136
1062.00,0.0130
1061.00,0.0124
1060.00,0.0119
1059.00,0.0115
1058.00,0.0112
1057.00,0.0109
1056.00,0.0105
1055.00,0.0103
1054.00,0.0100
1053.00,0.0098
1052.00,0.0096
1051.00,0.0094
1050.00,0.0093
1049.00,0.0092
1048.00,0.0091
1047.00,0.0089
1046.00,0.0089
1045.00,0.0088
1044.00,0.0088
1043.00,0.0089
1042.00,0.0090
1041.00,0.0091
1040.00,0.0093
1039.00,0.0097
1038.00,0.0103
1037.00,0.0113
1036.00,0.0126
1035.00,0.0144
1034.00,0.0167
1033.00,0.0192
1032.00,0.0218
1031.00,0.0242
1030.00,0.0262
1029.00,0.0276
1028.00,0.0281
1027.00,0.0277
1026.00,0.0265
1025.00,0.0247
1024.00,0.0227
1023.00,0.0209
1022.00,0.0193
1021.00,0.0180
1020.00,0.0169
1019.00,0.0160
1018.00,0.0152
1017.00,0.0145
1016.00,0.0138
1015.00,0.0133
1014.00,0.0128
1013.00,0.0125
1012.00,0.0121
1011.00,0.0118
1010.00,0.0116
1009.00,0.0115
1008.00,0.0115
1007.00,0.0116
1006.00,0.0119
1005.00,0.0122
1004.00,0.0124
1003.00,0.0124
1002.00,0.0121
1001.00,0.0116
1000.00,0.0109
999.00,0.0102
998.00,0.0097
997.00,0.0094
996.00,0.0091
995.00,0.0090
994.00,0.0089
993.00,0.0089
992.00,0.0089
991.00,0.0089
990.00,0.0090
989.00,0.0091
988.00,0.0093
987.00,0.0096
986.00,0.0098
985.00,0.0101
984.00,0.0104
983.00,0.0107
982.00,0.0109
981.00,0.0110
980.00,0.0111
979.00,0.0110
978.00,0.0108
977.00,0.0106
976.00,0.0103
975.00,0.0100
974.00,0.0098
973.00,0.0097
972.00,0.0097
971.00,0.0099
970.00,0.0101
969.00,0.0104
968.00,0.0108
967.00,0.0111
966.00,0.0114
965.00,0.0116
964.00,0.0116
963.00,0.0115
962.00,0.0112
961.00,0.0107
960.00,0.0102
959.00,0.0096
958.00,0.0091
957.00,0.0087
956.00,0.0084
955.00,0.0082
954.00,0.0081
953.00,0.0080
952.00,0.0081
951.00,0.0081
950.00,0.0082
949.00,0.0084
948.00,0.0085
947.00,0.0087
946.00,0.0089
945.00,0.0091
944.00,0.0091
943.00,0.0092
942.00,0.0091
941.00,0.0090
940.00,0.0089
939.00,0.0086
938.00,0.0084
937.00,0.0081
936.00,0.0078
935.00,0.0075
934.00,0.0073
933.00,0.0071
932.00,0.0070
931.00,0.0068
930.00,0.0067
929.00,0.0067
928.00,0.0067
927.00,0.0067
926.00,0.0068
925.00,0.0069
924.00,0.0071
923.00,0.0072
922.00,0.0074
921.00,0.0076
920.00,0.0079
919.00,0.0083
918.00,0.0088
917.00,0.0093
916.00,0.0100
915.00,0.0109
914.00,0.0119
913.00,0.0131
912.00,0.0144
911.00,0.0157
910.00,0.0170
909.00,0.0181
908.00,0.0190
907.00,0.0195
906.00,0.0196
905.00,0.0193
904.00,0.0185
903.00,0.0174
902.00,0.0160
901.00,0.0146
900.00,0.0131
899.00,0.0118
898.00,0.0107
897.00,0.0097
896.00,0.0089
895.00,0.0083
894.00,0.0078
893.00,0.0074
892.00,0.0071
891.00,0.0069
890.00,0.0067
889.00,0.0065
888.00,0.0064
887.00,0.0062
886.00,0.0061
885.00,0.0060
884.00,0.0059
883.00,0.0058
882.00,0.0057
881.00,0.0057
880.00,0.0056
879.00,0.0055
878.00,0.0054
877.00,0.0053
876.00,0.0052
875.00,0.0052
874.00,0.0052
873.00,0.0052
872.00,0.0052
871.00,0.0051
870.00,0.0051
869.00,0.0051
868.00,0.0050
867.00,0.0050
866.00,0.0049
865.00,0.0049
864.00,0.0048
863.00,0.0048
862.00,0.0048
861.00,0.0048
860.00,0.0049
859.00,0.0050
858.00,0.0051
857.00,0.0052
856.00,0.0053
855.00,0.0053
854.00,0.0055
853.00,0.0057
852.00,0.0060
851.00,0.0064
850.00,0.0068
849.00,0.0073
848.00,0.0079
847.00,0.0084
846.00,0.0090
845.00,0.0094
844.00,0.0098
843.00,0.0101
842.00,0.0102
841.00,0.0102
840.00,0.0100
839.00,0.0096
838.00,0.0091
837.00,0.0085
836.00,0.0079
835.00,0.0073
834.00,0.0067
833.00,0.0061
832.00,0.0057
831.00,0.0054
830.00,0.0051
829.00,0.0050
828.00,0.0048
827.00,0.0047
826.00,0.0046
825.00,0.0045
824.00,0.0044
823.00,0.0044
822.00,0.0045
821.00,0.0045
820.00,0.0046
819.00,0.0046
818.00,0.0047
817.00,0.0047
816.00,0.0048
815.00,0.0048
814.00,0.0049
813.00,0.0049
812.00,0.0050
811.00,0.0050
810.00,0.0050
809.00,0.0050
808.00,0.0050
807.00,0.0051
806.00,0.0051
805.00,0.0052
804.00,0.0052
803.00,0.0053
802.00,0.0054
801.00,0.0056
800.00,0.0058
799.00,0.0060
798.00,0.0063
797.00,0.0065
796.00,0.0069
795.00,0.0072
794.00,0.0075
793.00,0.0079
792.00,0.0083
791.00,0.0089
790.00,0.0094
789.00,0.0101
788.00,0.0107
787.00,0.0114
786.00,0.0121
785.00,0.0128
784.00,0.0136
783.00,0.0145
782.00,0.0155
781.00,0.0166
780.00,0.0179
779.00,0.0193
778.00,0.0209
777.00,0.0227
776.00,0.0248
775.00,0.0270
774.00,0.0295
773.00,0.0322
772.00,0.0351
771.00,0.0382
770.00,0.0415
769.00,0.0450
768.00,0.0484
767.00,0.0518
766.00,0.0551
765.00,0.0584
764.00,0.0617
763.00,0.0651
762.00,0.0686
761.00,0.0722
760.00,0.0757
759.00,0.0789
758.00,0.0818
757.00,0.0840
756.00,0.0855
755.00,0.0862
754.00,0.0863
753.00,0.0861
752.00,0.0858
751.00,0.0855
750.00,0.0852
749.00,0.0850
748.00,0.0843
747.00,0.0829
746.00,0.0805
745.00,0.0768
744.00,0.0719
743.00,0.0664
742.00,0.0605
741.00,0.0548
740.00,0.0494
739.00,0.0445
738.00,0.0401
737.00,0.0359
736.00,0.0319
735.00,0.0281
734.00,0.0246
733.00,0.0214
732.00,0.0186
731.00,0.0163
730.00,0.0146
729.00,0.0132
728.00,0.0122
727.00,0.0114
726.00,0.0109
725.00,0.0105
724.00,0.0103
723.00,0.0101
722.00,0.0101
721.00,0.0102
720.00,0.0103
719.00,0.0104
718.00,0.0107
717.00,0.0111
716.00,0.0118
715.00,0.0127
714.00,0.0141
713.00,0.0160
712.00,0.0187
711.00,0.0225
710.00,0.0275
709.00,0.0342
708.00,0.0427
707.00,0.0534
706.00,0.0662
705.00,0.0813
704.00,0.0986
703.00,0.1178
702.00,0.1390
701.00,0.1615
700.00,0.1850
699.00,0.2088
698.00,0.2323
697.00,0.2540
696.00,0.2706
695.00,0.2782
694.00,0.2736
693.00,0.2562
692.00,0.2295
691.00,0.1993
690.00,0.1703
689.00,0.1452
688.00,0.1247
687.00,0.1084
686.00,0.0957
685.00,0.0856
684.00,0.0774
683.00,0.0707
682.00,0.0650
681.00,0.0601
680.00,0.0558
679.00,0.0521
678.00,0.0490
677.00,0.0464
676.00,0.0441
675.00,0.0421
674.00,0.0403
673.00,0.0388
672.00,0.0375
671.00,0.0364
670.00,0.0353
669.00,0.0341
668.00,0.0327
667.00,0.0313
666.00,0.0301
665.00,0.0290
664.00,0.0279
663.00,0.0267
662.00,0.0255
661.00,0.0243
660.00,0.0232
659.00,0.0221
658.00,0.0212
657.00,0.0203
656.00,0.0195
655.00,0.0187
654.00,0.0180
653.00,0.0173
652.00,0.0167
651.00,0.0161
650.00,0.0156
649.00,0.0151
648.00,0.0146
647.00,0.0141
646.00,0.0138
645.00,0.0136
644.00,0.0134
643.00,0.0133
642.00,0.0133
641.00,0.0133
640.00,0.0134
639.00,0.0135
638.00,0.0137
637.00,0.0140
636.00,0.0143
635.00,0.0147
634.00,0.0151
633.00,0.0155
632.00,0.0157
631.00,0.0160
630.00,0.0163
629.00,0.0165
628.00,0.0168
627.00,0.0170
626.00,0.0173
625.00,0.0174
624.00,0.0176
623.00,0.0180
622.00,0.0184
621.00,0.0187
620.00,0.0187
619.00,0.0184
618.00,0.0179
617.00,0.0174
616.00,0.0168
615.00,0.0163
614.00,0.0158
613.00,0.0154
612.00,0.0150
611.00,0.0146
610.00,0.0143
609.00,0.0142
608.00,0.0142
607.00,0.0142
606.00,0.0143
605.00,0.0144
604.00,0.0143
603.00,0.0143
602.00,0.0144
601.00,0.0145
600.00,0.0146
599.00,0.0148
598.00,0.0150
597.00,0.0153
596.00,0.0154
595.00,0.0156
594.00,0.0158
593.00,0.0160
592.00,0.0163
591.00,0.0166
590.00,0.0169
589.00,0.0171
588.00,0.0174
587.00,0.0176
586.00,0.0179
585.00,0.0182
584.00,0.0187
583.00,0.0192
582.00,0.0199
581.00,0.0206
580.00,0.0214
579.00,0.0223
578.00,0.0232
577.00,0.0243
576.00,0.0254
575.00,0.0265
574.00,0.0277
573.00,0.0288
572.00,0.0300
571.00,0.0311
570.00,0.0323
569.00,0.0335
568.00,0.0347
567.00,0.0358
566.00,0.0369
565.00,0.0381
564.00,0.0392
563.00,0.0403
562.00,0.0415
561.00,0.0427
560.00,0.0439
559.00,0.0452
558.00,0.0465
557.00,0.0478
556.00,0.0491
555.00,0.0504
554.00,0.0518
553.00,0.0532
552.00,0.0547
551.00,0.0563
550.00,0.0581
549.00,0.0601
548.00,0.0624
547.00,0.0649
546.00,0.0676
545.00,0.0705
544.00,0.0737
543.00,0.0769
542.00,0.0801
541.00,0.0830
540.00,0.0855
539.00,0.0873
538.00,0.0881
537.00,0.0878
536.00,0.0863
535.00,0.0837
534.00,0.0802
533.00,0.0760
532.00,0.0715
531.00,0.0668
530.00,0.0621
529.00,0.0576
528.00,0.0536
527.00,0.0499
526.00,0.0466
525.00,0.0435
524.00,0.0408
523.00,0.0385
522.00,0.0364
521.00,0.0346
520.00,0.0329
519.00,0.0315
518.00,0.0304
517.00,0.0295
516.00,0.0286
515.00,0.0278
514.00,0.0269
513.00,0.0259
512.00,0.0250
511.00,0.0241
510.00,0.0233
509.00,0.0226
508.00,0.0219
507.00,0.0212
506.00,0.0206
505.00,0.0200
504.00,0.0194
503.00,0.0189
502.00,0.0186
501.00,0.0182
500.00,0.0178
499.00,0.0174
498.00,0.0171
497.00,0.0167
496.00,0.0163
495.00,0.0159
494.00,0.0155
493.00,0.0153
492.00,0.0152
491.00,0.0151
490.00,0.0150
489.00,0.0148
488.00,0.0145
487.00,0.0141
486.00,0.0138
485.00,0.0135
484.00,0.0132
483.00,0.0130
482.00,0.0130
481.00,0.0130
480.00,0.0130
479.00,0.0130
478.00,0.0130
477.00,0.0130
476.00,0.0129
475.00,0.0128
474.00,0.0129
473.00,0.0127
472.00,0.0121
471.00,0.0116
470.00,0.0113
469.00,0.0112
468.00,0.0112
467.00,0.0113
466.00,0.0114
465.00,0.0115
464.00,0.0114
463.00,0.0112
462.00,0.0111
461.00,0.0110
460.00,0.0109
459.00,0.0107
458.00,0.0106
457.00,0.0106
456.00,0.0105
455.00,0.0104
454.00,0.0105
453.00,0.0106
452.00,0.0106
451.00,0.0106
450.00,0.0106
449.00,0.0105
448.00,0.0104
447.00,0.0104
446.00,0.0105
445.00,0.0105
444.00,0.0103
443.00,0.0101
442.00,0.0100
441.00,0.0098
440.00,0.0093
439.00,0.0089
438.00,0.0088
437.00,0.0090
436.00,0.0092
435.00,0.0094
434.00,0.0097
433.00,0.0098
432.00,0.0098
431.00,0.0096
430.00,0.0093
429.00,0.0090
428.00,0.0086
427.00,0.0082
426.00,0.0080
425.00,0.0078
424.00,0.0077
423.00,0.0077
422.00,0.0080
421.00,0.0083
420.00,0.0086
419.00,0.0089
418.00,0.0092
417.00,0.0090
416.00,0.0087
415.00,0.0086
414.00,0.0088
413.00,0.0089
412.00,0.0089
411.00,0.0091
410.00,0.0098
409.00,0.0105
408.00,0.0106
407.00,0.0103
406.00,0.0103
405.00,0.0105
404.00,0.0109
403.00,0.0112
402.00,0.0112
401.00,0.0106
400.00,0.0097
