Created as New Dataset,Sample 743 By YargerLab Date Friday, June 27 2025
cm-1,A
4000.00,0.0011
3999.00,0.0011
3998.00,0.0011
3997.00,0.0011
3996.00,0.0011
3995.00,0.0011
3994.00,0.0011
3993.00,0.0011
3992.00,0.0011
3991.00,0.0011
3990.00,0.0011
3989.00,0.0011
3988.00,0.0011
3987.00,0.0011
3986.00,0.0011
3985.00,0.0011
3984.00,0.0011
3983.00,0.0011
3982.00,0.0011
3981.00,0.0011
3980.00,0.0011
3979.00,0.0010
3978.00,0.0010
3977.00,0.0010
3976.00,0.0010
3975.00,0.0010
3974.00,0.0010
3973.00,0.0011
3972.00,0.0011
3971.00,0.0011
3970.00,0.0011
3969.00,0.0011
3968.00,0.0011
3967.00,0.0011
3966.00,0.0011
3965.00,0.0011
3964.00,0.0010
3963.00,0.0010
3962.00,0.0010
3961.00,0.0010
3960.00,0.0010
3959.00,0.0010
3958.00,0.0010
3957.00,0.0010
3956.00,0.0010
3955.00,0.0010
3954.00,0.0011
3953.00,0.0011
3952.00,0.0011
3951.00,0.0011
3950.00,0.0011
3949.00,0.0011
3948.00,0.0011
3947.00,0.0011
3946.00,0.0011
3945.00,0.0010
3944.00,0.0011
3943.00,0.0011
3942.00,0.0011
3941.00,0.0011
3940.00,0.0011
3939.00,0.0011
3938.00,0.0011
3937.00,0.0011
3936.00,0.0011
3935.00,0.0011
3934.00,0.0011
3933.00,0.0011
3932.00,0.0011
3931.00,0.0011
3930.00,0.0011
3929.00,0.0011
3928.00,0.0011
3927.00,0.0010
3926.00,0.0010
3925.00,0.0011
3924.00,0.0011
3923.00,0.0011
3922.00,0.0012
3921.00,0.0012
3920.00,0.0012
3919.00,0.0012
3918.00,0.0012
3917.00,0.0012
3916.00,0.0011
3915.00,0.0011
3914.00,0.0011
3913.00,0.0011
3912.00,0.0011
3911.00,0.0010
3910.00,0.0010
3909.00,0.0010
3908.00,0.0011
3907.00,0.0011
3906.00,0.0011
3905.00,0.0011
3904.00,0.0012
3903.00,0.0012
3902.00,0.0012
3901.00,0.0012
3900.00,0.0011
3899.00,0.0011
3898.00,0.0011
3897.00,0.0011
3896.00,0.0011
3895.00,0.0011
3894.00,0.0011
3893.00,0.0011
3892.00,0.0010
3891.00,0.0010
3890.00,0.0010
3889.00,0.0011
3888.00,0.0011
3887.00,0.0011
3886.00,0.0011
3885.00,0.0011
3884.00,0.0011
3883.00,0.0011
3882.00,0.0011
3881.00,0.0011
3880.00,0.0011
3879.00,0.0011
3878.00,0.0011
3877.00,0.0011
3876.00,0.0011
3875.00,0.0011
3874.00,0.0011
3873.00,0.0011
3872.00,0.0011
3871.00,0.0011
3870.00,0.0011
3869.00,0.0011
3868.00,0.0011
3867.00,0.0011
3866.00,0.0011
3865.00,0.0011
3864.00,0.0011
3863.00,0.0011
3862.00,0.0011
3861.00,0.0011
3860.00,0.0011
3859.00,0.0011
3858.00,0.0010
3857.00,0.0010
3856.00,0.0010
3855.00,0.0010
3854.00,0.0010
3853.00,0.0010
3852.00,0.0010
3851.00,0.0010
3850.00,0.0010
3849.00,0.0010
3848.00,0.0011
3847.00,0.0011
3846.00,0.0011
3845.00,0.0011
3844.00,0.0011
3843.00,0.0012
3842.00,0.0012
3841.00,0.0012
3840.00,0.0012
3839.00,0.0012
3838.00,0.0012
3837.00,0.0011
3836.00,0.0011
3835.00,0.0011
3834.00,0.0011
3833.00,0.0011
3832.00,0.0011
3831.00,0.0011
3830.00,0.0011
3829.00,0.0011
3828.00,0.0011
3827.00,0.0011
3826.00,0.0011
3825.00,0.0011
3824.00,0.0012
3823.00,0.0012
3822.00,0.0012
3821.00,0.0012
3820.00,0.0011
3819.00,0.0011
3818.00,0.0011
3817.00,0.0011
3816.00,0.0011
3815.00,0.0011
3814.00,0.0011
3813.00,0.0011
3812.00,0.0011
3811.00,0.0011
3810.00,0.0011
3809.00,0.0011
3808.00,0.0011
3807.00,0.0011
3806.00,0.0011
3805.00,0.0011
3804.00,0.0011
3803.00,0.0012
3802.00,0.0012
3801.00,0.0012
3800.00,0.0012
3799.00,0.0012
3798.00,0.0012
3797.00,0.0012
3796.00,0.0012
3795.00,0.0011
3794.00,0.0011
3793.00,0.0011
3792.00,0.0011
3791.00,0.0011
3790.00,0.0010
3789.00,0.0010
3788.00,0.0010
3787.00,0.0010
3786.00,0.0010
3785.00,0.0010
3784.00,0.0010
3783.00,0.0011
3782.00,0.0011
3781.00,0.0011
3780.00,0.0011
3779.00,0.0011
3778.00,0.0011
3777.00,0.0010
3776.00,0.0010
3775.00,0.0010
3774.00,0.0010
3773.00,0.0010
3772.00,0.0011
3771.00,0.0011
3770.00,0.0011
3769.00,0.0011
3768.00,0.0011
3767.00,0.0011
3766.00,0.0011
3765.00,0.0011
3764.00,0.0011
3763.00,0.0012
3762.00,0.0012
3761.00,0.0012
3760.00,0.0012
3759.00,0.0012
3758.00,0.0012
3757.00,0.0012
3756.00,0.0012
3755.00,0.0012
3754.00,0.0012
3753.00,0.0012
3752.00,0.0012
3751.00,0.0012
3750.00,0.0012
3749.00,0.0012
3748.00,0.0011
3747.00,0.0011
3746.00,0.0011
3745.00,0.0012
3744.00,0.0012
3743.00,0.0012
3742.00,0.0012
3741.00,0.0012
3740.00,0.0013
3739.00,0.0013
3738.00,0.0013
3737.00,0.0013
3736.00,0.0012
3735.00,0.0012
3734.00,0.0013
3733.00,0.0013
3732.00,0.0012
3731.00,0.0012
3730.00,0.0012
3729.00,0.0012
3728.00,0.0012
3727.00,0.0012
3726.00,0.0012
3725.00,0.0012
3724.00,0.0012
3723.00,0.0012
3722.00,0.0012
3721.00,0.0012
3720.00,0.0012
3719.00,0.0011
3718.00,0.0011
3717.00,0.0011
3716.00,0.0011
3715.00,0.0011
3714.00,0.0011
3713.00,0.0011
3712.00,0.0011
3711.00,0.0011
3710.00,0.0011
3709.00,0.0011
3708.00,0.0011
3707.00,0.0011
3706.00,0.0011
3705.00,0.0011
3704.00,0.0011
3703.00,0.0011
3702.00,0.0011
3701.00,0.0011
3700.00,0.0010
3699.00,0.0010
3698.00,0.0010
3697.00,0.0010
3696.00,0.0010
3695.00,0.0010
3694.00,0.0010
3693.00,0.0010
3692.00,0.0010
3691.00,0.0010
3690.00,0.0010
3689.00,0.0010
3688.00,0.0011
3687.00,0.0010
3686.00,0.0010
3685.00,0.0010
3684.00,0.0010
3683.00,0.0010
3682.00,0.0010
3681.00,0.0010
3680.00,0.0010
3679.00,0.0010
3678.00,0.0010
3677.00,0.0010
3676.00,0.0010
3675.00,0.0009
3674.00,0.0009
3673.00,0.0009
3672.00,0.0009
3671.00,0.0009
3670.00,0.0009
3669.00,0.0008
3668.00,0.0008
3667.00,0.0008
3666.00,0.0008
3665.00,0.0008
3664.00,0.0008
3663.00,0.0008
3662.00,0.0008
3661.00,0.0008
3660.00,0.0008
3659.00,0.0008
3658.00,0.0007
3657.00,0.0007
3656.00,0.0008
3655.00,0.0008
3654.00,0.0009
3653.00,0.0009
3652.00,0.0010
3651.00,0.0010
3650.00,0.0010
3649.00,0.0010
3648.00,0.0011
3647.00,0.0011
3646.00,0.0010
3645.00,0.0010
3644.00,0.0010
3643.00,0.0009
3642.00,0.0009
3641.00,0.0009
3640.00,0.0009
3639.00,0.0009
3638.00,0.0009
3637.00,0.0009
3636.00,0.0009
3635.00,0.0009
3634.00,0.0009
3633.00,0.0010
3632.00,0.0010
3631.00,0.0010
3630.00,0.0010
3629.00,0.0010
3628.00,0.0011
3627.00,0.0011
3626.00,0.0012
3625.00,0.0012
3624.00,0.0012
3623.00,0.0011
3622.00,0.0011
3621.00,0.0011
3620.00,0.0011
3619.00,0.0011
3618.00,0.0012
3617.00,0.0012
3616.00,0.0012
3615.00,0.0012
3614.00,0.0012
3613.00,0.0012
3612.00,0.0012
3611.00,0.0012
3610.00,0.0012
3609.00,0.0011
3608.00,0.0011
3607.00,0.0011
3606.00,0.0011
3605.00,0.0011
3604.00,0.0011
3603.00,0.0011
3602.00,0.0011
3601.00,0.0011
3600.00,0.0011
3599.00,0.0011
3598.00,0.0011
3597.00,0.0011
3596.00,0.0011
3595.00,0.0011
3594.00,0.0011
3593.00,0.0011
3592.00,0.0011
3591.00,0.0011
3590.00,0.0012
3589.00,0.0012
3588.00,0.0012
3587.00,0.0012
3586.00,0.0012
3585.00,0.0012
3584.00,0.0012
3583.00,0.0012
3582.00,0.0011
3581.00,0.0011
3580.00,0.0011
3579.00,0.0011
3578.00,0.0011
3577.00,0.0011
3576.00,0.0011
3575.00,0.0011
3574.00,0.0011
3573.00,0.0011
3572.00,0.0011
3571.00,0.0011
3570.00,0.0012
3569.00,0.0012
3568.00,0.0012
3567.00,0.0012
3566.00,0.0012
3565.00,0.0011
3564.00,0.0011
3563.00,0.0011
3562.00,0.0011
3561.00,0.0011
3560.00,0.0011
3559.00,0.0011
3558.00,0.0011
3557.00,0.0011
3556.00,0.0011
3555.00,0.0011
3554.00,0.0011
3553.00,0.0011
3552.00,0.0011
3551.00,0.0011
3550.00,0.0011
3549.00,0.0011
3548.00,0.0012
3547.00,0.0012
3546.00,0.0012
3545.00,0.0012
3544.00,0.0012
3543.00,0.0012
3542.00,0.0012
3541.00,0.0012
3540.00,0.0012
3539.00,0.0011
3538.00,0.0011
3537.00,0.0011
3536.00,0.0012
3535.00,0.0012
3534.00,0.0012
3533.00,0.0012
3532.00,0.0012
3531.00,0.0012
3530.00,0.0012
3529.00,0.0012
3528.00,0.0012
3527.00,0.0013
3526.00,0.0013
3525.00,0.0013
3524.00,0.0013
3523.00,0.0012
3522.00,0.0012
3521.00,0.0012
3520.00,0.0012
3519.00,0.0012
3518.00,0.0012
3517.00,0.0012
3516.00,0.0012
3515.00,0.0012
3514.00,0.0012
3513.00,0.0012
3512.00,0.0012
3511.00,0.0012
3510.00,0.0012
3509.00,0.0012
3508.00,0.0012
3507.00,0.0012
3506.00,0.0013
3505.00,0.0013
3504.00,0.0013
3503.00,0.0013
3502.00,0.0013
3501.00,0.0013
3500.00,0.0013
3499.00,0.0013
3498.00,0.0013
3497.00,0.0013
3496.00,0.0013
3495.00,0.0013
3494.00,0.0013
3493.00,0.0013
3492.00,0.0013
3491.00,0.0013
3490.00,0.0013
3489.00,0.0013
3488.00,0.0013
3487.00,0.0013
3486.00,0.0013
3485.00,0.0013
3484.00,0.0013
3483.00,0.0013
3482.00,0.0013
3481.00,0.0013
3480.00,0.0013
3479.00,0.0013
3478.00,0.0013
3477.00,0.0013
3476.00,0.0013
3475.00,0.0013
3474.00,0.0013
3473.00,0.0013
3472.00,0.0013
3471.00,0.0013
3470.00,0.0013
3469.00,0.0013
3468.00,0.0013
3467.00,0.0013
3466.00,0.0013
3465.00,0.0013
3464.00,0.0013
3463.00,0.0013
3462.00,0.0013
3461.00,0.0013
3460.00,0.0013
3459.00,0.0013
3458.00,0.0013
3457.00,0.0013
3456.00,0.0013
3455.00,0.0013
3454.00,0.0013
3453.00,0.0013
3452.00,0.0013
3451.00,0.0013
3450.00,0.0014
3449.00,0.0014
3448.00,0.0014
3447.00,0.0014
3446.00,0.0014
3445.00,0.0013
3444.00,0.0013
3443.00,0.0013
3442.00,0.0013
3441.00,0.0014
3440.00,0.0014
3439.00,0.0014
3438.00,0.0014
3437.00,0.0014
3436.00,0.0014
3435.00,0.0014
3434.00,0.0014
3433.00,0.0014
3432.00,0.0014
3431.00,0.0013
3430.00,0.0013
3429.00,0.0013
3428.00,0.0014
3427.00,0.0014
3426.00,0.0014
3425.00,0.0014
3424.00,0.0014
3423.00,0.0014
3422.00,0.0014
3421.00,0.0014
3420.00,0.0014
3419.00,0.0014
3418.00,0.0014
3417.00,0.0014
3416.00,0.0014
3415.00,0.0014
3414.00,0.0014
3413.00,0.0015
3412.00,0.0015
3411.00,0.0014
3410.00,0.0014
3409.00,0.0014
3408.00,0.0013
3407.00,0.0013
3406.00,0.0014
3405.00,0.0014
3404.00,0.0014
3403.00,0.0014
3402.00,0.0014
3401.00,0.0014
3400.00,0.0015
3399.00,0.0015
3398.00,0.0015
3397.00,0.0014
3396.00,0.0014
3395.00,0.0014
3394.00,0.0014
3393.00,0.0014
3392.00,0.0014
3391.00,0.0014
3390.00,0.0014
3389.00,0.0014
3388.00,0.0014
3387.00,0.0014
3386.00,0.0014
3385.00,0.0014
3384.00,0.0014
3383.00,0.0014
3382.00,0.0014
3381.00,0.0014
3380.00,0.0014
3379.00,0.0014
3378.00,0.0014
3377.00,0.0014
3376.00,0.0014
3375.00,0.0014
3374.00,0.0014
3373.00,0.0014
3372.00,0.0014
3371.00,0.0014
3370.00,0.0014
3369.00,0.0014
3368.00,0.0014
3367.00,0.0014
3366.00,0.0014
3365.00,0.0014
3364.00,0.0014
3363.00,0.0014
3362.00,0.0014
3361.00,0.0014
3360.00,0.0014
3359.00,0.0014
3358.00,0.0014
3357.00,0.0014
3356.00,0.0014
3355.00,0.0014
3354.00,0.0014
3353.00,0.0014
3352.00,0.0014
3351.00,0.0014
3350.00,0.0014
3349.00,0.0014
3348.00,0.0014
3347.00,0.0014
3346.00,0.0014
3345.00,0.0014
3344.00,0.0014
3343.00,0.0014
3342.00,0.0014
3341.00,0.0014
3340.00,0.0014
3339.00,0.0015
3338.00,0.0015
3337.00,0.0015
3336.00,0.0015
3335.00,0.0015
3334.00,0.0015
3333.00,0.0015
3332.00,0.0015
3331.00,0.0014
3330.00,0.0014
3329.00,0.0014
3328.00,0.0014
3327.00,0.0014
3326.00,0.0014
3325.00,0.0014
3324.00,0.0014
3323.00,0.0014
3322.00,0.0014
3321.00,0.0014
3320.00,0.0014
3319.00,0.0014
3318.00,0.0014
3317.00,0.0014
3316.00,0.0014
3315.00,0.0014
3314.00,0.0014
3313.00,0.0014
3312.00,0.0014
3311.00,0.0014
3310.00,0.0014
3309.00,0.0014
3308.00,0.0015
3307.00,0.0015
3306.00,0.0015
3305.00,0.0015
3304.00,0.0015
3303.00,0.0015
3302.00,0.0015
3301.00,0.0014
3300.00,0.0014
3299.00,0.0014
3298.00,0.0014
3297.00,0.0015
3296.00,0.0015
3295.00,0.0015
3294.00,0.0015
3293.00,0.0014
3292.00,0.0014
3291.00,0.0014
3290.00,0.0014
3289.00,0.0014
3288.00,0.0014
3287.00,0.0014
3286.00,0.0014
3285.00,0.0014
3284.00,0.0014
3283.00,0.0014
3282.00,0.0014
3281.00,0.0014
3280.00,0.0014
3279.00,0.0014
3278.00,0.0014
3277.00,0.0014
3276.00,0.0014
3275.00,0.0014
3274.00,0.0014
3273.00,0.0014
3272.00,0.0014
3271.00,0.0014
3270.00,0.0014
3269.00,0.0014
3268.00,0.0014
3267.00,0.0014
3266.00,0.0013
3265.00,0.0013
3264.00,0.0013
3263.00,0.0013
3262.00,0.0013
3261.00,0.0014
3260.00,0.0014
3259.00,0.0014
3258.00,0.0014
3257.00,0.0014
3256.00,0.0014
3255.00,0.0014
3254.00,0.0014
3253.00,0.0013
3252.00,0.0013
3251.00,0.0013
3250.00,0.0013
3249.00,0.0013
3248.00,0.0013
3247.00,0.0013
3246.00,0.0013
3245.00,0.0013
3244.00,0.0013
3243.00,0.0013
3242.00,0.0013
3241.00,0.0013
3240.00,0.0013
3239.00,0.0013
3238.00,0.0013
3237.00,0.0013
3236.00,0.0013
3235.00,0.0013
3234.00,0.0014
3233.00,0.0014
3232.00,0.0014
3231.00,0.0014
3230.00,0.0013
3229.00,0.0014
3228.00,0.0014
3227.00,0.0014
3226.00,0.0014
3225.00,0.0014
3224.00,0.0014
3223.00,0.0013
3222.00,0.0014
3221.00,0.0014
3220.00,0.0014
3219.00,0.0014
3218.00,0.0013
3217.00,0.0013
3216.00,0.0013
3215.00,0.0013
3214.00,0.0013
3213.00,0.0013
3212.00,0.0013
3211.00,0.0013
3210.00,0.0013
3209.00,0.0013
3208.00,0.0013
3207.00,0.0013
3206.00,0.0013
3205.00,0.0013
3204.00,0.0013
3203.00,0.0013
3202.00,0.0013
3201.00,0.0013
3200.00,0.0013
3199.00,0.0013
3198.00,0.0013
3197.00,0.0013
3196.00,0.0013
3195.00,0.0013
3194.00,0.0013
3193.00,0.0013
3192.00,0.0013
3191.00,0.0012
3190.00,0.0012
3189.00,0.0012
3188.00,0.0013
3187.00,0.0013
3186.00,0.0013
3185.00,0.0013
3184.00,0.0013
3183.00,0.0013
3182.00,0.0013
3181.00,0.0013
3180.00,0.0013
3179.00,0.0013
3178.00,0.0013
3177.00,0.0012
3176.00,0.0012
3175.00,0.0012
3174.00,0.0013
3173.00,0.0013
3172.00,0.0013
3171.00,0.0013
3170.00,0.0013
3169.00,0.0013
3168.00,0.0013
3167.00,0.0014
3166.00,0.0014
3165.00,0.0014
3164.00,0.0014
3163.00,0.0014
3162.00,0.0014
3161.00,0.0014
3160.00,0.0014
3159.00,0.0014
3158.00,0.0014
3157.00,0.0014
3156.00,0.0013
3155.00,0.0013
3154.00,0.0013
3153.00,0.0013
3152.00,0.0013
3151.00,0.0013
3150.00,0.0013
3149.00,0.0013
3148.00,0.0013
3147.00,0.0013
3146.00,0.0013
3145.00,0.0013
3144.00,0.0013
3143.00,0.0013
3142.00,0.0013
3141.00,0.0013
3140.00,0.0013
3139.00,0.0013
3138.00,0.0013
3137.00,0.0013
3136.00,0.0013
3135.00,0.0013
3134.00,0.0013
3133.00,0.0013
3132.00,0.0013
3131.00,0.0013
3130.00,0.0013
3129.00,0.0014
3128.00,0.0014
3127.00,0.0013
3126.00,0.0013
3125.00,0.0013
3124.00,0.0014
3123.00,0.0014
3122.00,0.0014
3121.00,0.0015
3120.00,0.0015
3119.00,0.0015
3118.00,0.0016
3117.00,0.0016
3116.00,0.0016
3115.00,0.0017
3114.00,0.0017
3113.00,0.0018
3112.00,0.0019
3111.00,0.0020
3110.00,0.0021
3109.00,0.0022
3108.00,0.0023
3107.00,0.0025
3106.00,0.0026
3105.00,0.0027
3104.00,0.0028
3103.00,0.0028
3102.00,0.0028
3101.00,0.0028
3100.00,0.0027
3099.00,0.0027
3098.00,0.0026
3097.00,0.0026
3096.00,0.0026
3095.00,0.0026
3094.00,0.0027
3093.00,0.0029
3092.00,0.0031
3091.00,0.0033
3090.00,0.0036
3089.00,0.0039
3088.00,0.0043
3087.00,0.0047
3086.00,0.0052
3085.00,0.0056
3084.00,0.0059
3083.00,0.0061
3082.00,0.0062
3081.00,0.0062
3080.00,0.0060
3079.00,0.0057
3078.00,0.0054
3077.00,0.0051
3076.00,0.0049
3075.00,0.0047
3074.00,0.0046
3073.00,0.0046
3072.00,0.0046
3071.00,0.0048
3070.00,0.0050
3069.00,0.0052
3068.00,0.0055
3067.00,0.0059
3066.00,0.0063
3065.00,0.0067
3064.00,0.0072
3063.00,0.0076
3062.00,0.0080
3061.00,0.0083
3060.00,0.0084
3059.00,0.0084
3058.00,0.0083
3057.00,0.0080
3056.00,0.0076
3055.00,0.0072
3054.00,0.0067
3053.00,0.0062
3052.00,0.0058
3051.00,0.0054
3050.00,0.0051
3049.00,0.0049
3048.00,0.0047
3047.00,0.0046
3046.00,0.0045
3045.00,0.0045
3044.00,0.0045
3043.00,0.0046
3042.00,0.0047
3041.00,0.0049
3040.00,0.0051
3039.00,0.0054
3038.00,0.0057
3037.00,0.0062
3036.00,0.0067
3035.00,0.0074
3034.00,0.0082
3033.00,0.0090
3032.00,0.0100
3031.00,0.0111
3030.00,0.0123
3029.00,0.0134
3028.00,0.0145
3027.00,0.0153
3026.00,0.0159
3025.00,0.0161
3024.00,0.0158
3023.00,0.0151
3022.00,0.0141
3021.00,0.0128
3020.00,0.0114
3019.00,0.0101
3018.00,0.0088
3017.00,0.0077
3016.00,0.0068
3015.00,0.0060
3014.00,0.0054
3013.00,0.0049
3012.00,0.0045
3011.00,0.0042
3010.00,0.0039
3009.00,0.0038
3008.00,0.0037
3007.00,0.0037
3006.00,0.0037
3005.00,0.0038
3004.00,0.0038
3003.00,0.0039
3002.00,0.0039
3001.00,0.0038
3000.00,0.0037
2999.00,0.0034
2998.00,0.0032
2997.00,0.0028
2996.00,0.0025
2995.00,0.0022
2994.00,0.0019
2993.00,0.0017
2992.00,0.0015
2991.00,0.0013
2990.00,0.0012
2989.00,0.0011
2988.00,0.0011
2987.00,0.0010
2986.00,0.0008
2985.00,0.0007
2984.00,0.0005
2983.00,0.0002
2982.00,0.0001
2981.00,0.0001
2980.00,0.0001
2979.00,0.0003
2978.00,0.0004
2977.00,0.0005
2976.00,0.0006
2975.00,0.0007
2974.00,0.0008
2973.00,0.0008
2972.00,0.0008
2971.00,0.0008
2970.00,0.0010
2969.00,0.0011
2968.00,0.0013
2967.00,0.0015
2966.00,0.0016
2965.00,0.0018
2964.00,0.0019
2963.00,0.0021
2962.00,0.0023
2961.00,0.0024
2960.00,0.0026
2959.00,0.0028
2958.00,0.0029
2957.00,0.0031
2956.00,0.0033
2955.00,0.0036
2954.00,0.0038
2953.00,0.0040
2952.00,0.0042
2951.00,0.0045
2950.00,0.0048
2949.00,0.0052
2948.00,0.0055
2947.00,0.0059
2946.00,0.0063
2945.00,0.0068
2944.00,0.0072
2943.00,0.0076
2942.00,0.0081
2941.00,0.0086
2940.00,0.0092
2939.00,0.0098
2938.00,0.0104
2937.00,0.0110
2936.00,0.0117
2935.00,0.0124
2934.00,0.0131
2933.00,0.0138
2932.00,0.0146
2931.00,0.0152
2930.00,0.0159
2929.00,0.0165
2928.00,0.0171
2927.00,0.0176
2926.00,0.0180
2925.00,0.0183
2924.00,0.0186
2923.00,0.0188
2922.00,0.0188
2921.00,0.0188
2920.00,0.0187
2919.00,0.0185
2918.00,0.0183
2917.00,0.0180
2916.00,0.0177
2915.00,0.0173
2914.00,0.0169
2913.00,0.0165
2912.00,0.0160
2911.00,0.0156
2910.00,0.0151
2909.00,0.0145
2908.00,0.0140
2907.00,0.0135
2906.00,0.0130
2905.00,0.0125
2904.00,0.0120
2903.00,0.0115
2902.00,0.0110
2901.00,0.0106
2900.00,0.0101
2899.00,0.0096
2898.00,0.0091
2897.00,0.0087
2896.00,0.0083
2895.00,0.0080
2894.00,0.0076
2893.00,0.0073
2892.00,0.0070
2891.00,0.0068
2890.00,0.0066
2889.00,0.0064
2888.00,0.0062
2887.00,0.0060
2886.00,0.0059
2885.00,0.0058
2884.00,0.0056
2883.00,0.0055
2882.00,0.0054
2881.00,0.0053
2880.00,0.0052
2879.00,0.0051
2878.00,0.0050
2877.00,0.0049
2876.00,0.0048
2875.00,0.0047
2874.00,0.0047
2873.00,0.0046
2872.00,0.0045
2871.00,0.0045
2870.00,0.0045
2869.00,0.0045
2868.00,0.0045
2867.00,0.0046
2866.00,0.0047
2865.00,0.0048
2864.00,0.0050
2863.00,0.0052
2862.00,0.0054
2861.00,0.0057
2860.00,0.0059
2859.00,0.0062
2858.00,0.0065
2857.00,0.0068
2856.00,0.0072
2855.00,0.0075
2854.00,0.0077
2853.00,0.0080
2852.00,0.0082
2851.00,0.0083
2850.00,0.0084
2849.00,0.0084
2848.00,0.0084
2847.00,0.0082
2846.00,0.0080
2845.00,0.0077
2844.00,0.0073
2843.00,0.0069
2842.00,0.0065
2841.00,0.0060
2840.00,0.0055
2839.00,0.0050
2838.00,0.0046
2837.00,0.0042
2836.00,0.0038
2835.00,0.0035
2834.00,0.0033
2833.00,0.0030
2832.00,0.0029
2831.00,0.0027
2830.00,0.0026
2829.00,0.0025
2828.00,0.0024
2827.00,0.0023
2826.00,0.0023
2825.00,0.0022
2824.00,0.0022
2823.00,0.0022
2822.00,0.0021
2821.00,0.0021
2820.00,0.0021
2819.00,0.0020
2818.00,0.0020
2817.00,0.0020
2816.00,0.0020
2815.00,0.0020
2814.00,0.0020
2813.00,0.0020
2812.00,0.0020
2811.00,0.0020
2810.00,0.0020
2809.00,0.0019
2808.00,0.0019
2807.00,0.0019
2806.00,0.0019
2805.00,0.0019
2804.00,0.0018
2803.00,0.0018
2802.00,0.0018
2801.00,0.0018
2800.00,0.0018
2799.00,0.0018
2798.00,0.0018
2797.00,0.0018
2796.00,0.0018
2795.00,0.0017
2794.00,0.0017
2793.00,0.0017
2792.00,0.0017
2791.00,0.0017
2790.00,0.0017
2789.00,0.0017
2788.00,0.0017
2787.00,0.0017
2786.00,0.0017
2785.00,0.0016
2784.00,0.0016
2783.00,0.0016
2782.00,0.0016
2781.00,0.0016
2780.00,0.0016
2779.00,0.0016
2778.00,0.0016
2777.00,0.0016
2776.00,0.0016
2775.00,0.0016
2774.00,0.0016
2773.00,0.0016
2772.00,0.0016
2771.00,0.0016
2770.00,0.0016
2769.00,0.0016
2768.00,0.0016
2767.00,0.0016
2766.00,0.0015
2765.00,0.0015
2764.00,0.0015
2763.00,0.0015
2762.00,0.0015
2761.00,0.0015
2760.00,0.0015
2759.00,0.0015
2758.00,0.0015
2757.00,0.0015
2756.00,0.0015
2755.00,0.0015
2754.00,0.0015
2753.00,0.0015
2752.00,0.0015
2751.00,0.0015
2750.00,0.0015
2749.00,0.0015
2748.00,0.0015
2747.00,0.0015
2746.00,0.0015
2745.00,0.0015
2744.00,0.0015
2743.00,0.0015
2742.00,0.0015
2741.00,0.0015
2740.00,0.0015
2739.00,0.0015
2738.00,0.0015
2737.00,0.0015
2736.00,0.0015
2735.00,0.0015
2734.00,0.0015
2733.00,0.0015
2732.00,0.0015
2731.00,0.0015
2730.00,0.0016
2729.00,0.0016
2728.00,0.0016
2727.00,0.0016
2726.00,0.0016
2725.00,0.0016
2724.00,0.0016
2723.00,0.0016
2722.00,0.0016
2721.00,0.0016
2720.00,0.0016
2719.00,0.0015
2718.00,0.0015
2717.00,0.0015
2716.00,0.0015
2715.00,0.0015
2714.00,0.0015
2713.00,0.0015
2712.00,0.0015
2711.00,0.0015
2710.00,0.0015
2709.00,0.0015
2708.00,0.0015
2707.00,0.0015
2706.00,0.0015
2705.00,0.0015
2704.00,0.0015
2703.00,0.0015
2702.00,0.0015
2701.00,0.0015
2700.00,0.0015
2699.00,0.0015
2698.00,0.0015
2697.00,0.0015
2696.00,0.0015
2695.00,0.0015
2694.00,0.0015
2693.00,0.0015
2692.00,0.0015
2691.00,0.0015
2690.00,0.0015
2689.00,0.0015
2688.00,0.0015
2687.00,0.0015
2686.00,0.0015
2685.00,0.0015
2684.00,0.0015
2683.00,0.0015
2682.00,0.0015
2681.00,0.0015
2680.00,0.0015
2679.00,0.0015
2678.00,0.0015
2677.00,0.0015
2676.00,0.0015
2675.00,0.0015
2674.00,0.0015
2673.00,0.0015
2672.00,0.0015
2671.00,0.0015
2670.00,0.0015
2669.00,0.0015
2668.00,0.0015
2667.00,0.0015
2666.00,0.0015
2665.00,0.0016
2664.00,0.0016
2663.00,0.0016
2662.00,0.0016
2661.00,0.0016
2660.00,0.0017
2659.00,0.0017
2658.00,0.0017
2657.00,0.0017
2656.00,0.0017
2655.00,0.0017
2654.00,0.0017
2653.00,0.0017
2652.00,0.0017
2651.00,0.0017
2650.00,0.0017
2649.00,0.0017
2648.00,0.0017
2647.00,0.0017
2646.00,0.0017
2645.00,0.0017
2644.00,0.0017
2643.00,0.0017
2642.00,0.0017
2641.00,0.0017
2640.00,0.0017
2639.00,0.0017
2638.00,0.0018
2637.00,0.0018
2636.00,0.0018
2635.00,0.0018
2634.00,0.0018
2633.00,0.0018
2632.00,0.0018
2631.00,0.0018
2630.00,0.0018
2629.00,0.0017
2628.00,0.0017
2627.00,0.0017
2626.00,0.0017
2625.00,0.0017
2624.00,0.0017
2623.00,0.0016
2622.00,0.0016
2621.00,0.0016
2620.00,0.0016
2619.00,0.0016
2618.00,0.0016
2617.00,0.0016
2616.00,0.0016
2615.00,0.0016
2614.00,0.0016
2613.00,0.0015
2612.00,0.0015
2611.00,0.0016
2610.00,0.0016
2609.00,0.0016
2608.00,0.0016
2607.00,0.0016
2606.00,0.0016
2605.00,0.0016
2604.00,0.0016
2603.00,0.0016
2602.00,0.0016
2601.00,0.0016
2600.00,0.0016
2599.00,0.0015
2598.00,0.0015
2597.00,0.0015
2596.00,0.0015
2595.00,0.0015
2594.00,0.0015
2593.00,0.0015
2592.00,0.0015
2591.00,0.0014
2590.00,0.0014
2589.00,0.0014
2588.00,0.0014
2587.00,0.0014
2586.00,0.0014
2585.00,0.0014
2584.00,0.0014
2583.00,0.0014
2582.00,0.0015
2581.00,0.0015
2580.00,0.0015
2579.00,0.0015
2578.00,0.0015
2577.00,0.0014
2576.00,0.0014
2575.00,0.0014
2574.00,0.0014
2573.00,0.0014
2572.00,0.0014
2571.00,0.0014
2570.00,0.0014
2569.00,0.0014
2568.00,0.0014
2567.00,0.0014
2566.00,0.0014
2565.00,0.0014
2564.00,0.0013
2563.00,0.0013
2562.00,0.0013
2561.00,0.0013
2560.00,0.0013
2559.00,0.0013
2558.00,0.0013
2557.00,0.0013
2556.00,0.0013
2555.00,0.0013
2554.00,0.0013
2553.00,0.0013
2552.00,0.0013
2551.00,0.0013
2550.00,0.0013
2549.00,0.0013
2548.00,0.0014
2547.00,0.0014
2546.00,0.0013
2545.00,0.0013
2544.00,0.0013
2543.00,0.0013
2542.00,0.0013
2541.00,0.0013
2540.00,0.0013
2539.00,0.0013
2538.00,0.0013
2537.00,0.0013
2536.00,0.0013
2535.00,0.0013
2534.00,0.0013
2533.00,0.0013
2532.00,0.0013
2531.00,0.0013
2530.00,0.0012
2529.00,0.0012
2528.00,0.0012
2527.00,0.0012
2526.00,0.0012
2525.00,0.0012
2524.00,0.0012
2523.00,0.0012
2522.00,0.0012
2521.00,0.0012
2520.00,0.0012
2519.00,0.0012
2518.00,0.0013
2517.00,0.0013
2516.00,0.0013
2515.00,0.0013
2514.00,0.0013
2513.00,0.0013
2512.00,0.0013
2511.00,0.0013
2510.00,0.0013
2509.00,0.0013
2508.00,0.0013
2507.00,0.0013
2506.00,0.0012
2505.00,0.0012
2504.00,0.0012
2503.00,0.0013
2502.00,0.0013
2501.00,0.0013
2500.00,0.0013
2499.00,0.0013
2498.00,0.0013
2497.00,0.0012
2496.00,0.0012
2495.00,0.0012
2494.00,0.0012
2493.00,0.0012
2492.00,0.0012
2491.00,0.0012
2490.00,0.0012
2489.00,0.0013
2488.00,0.0013
2487.00,0.0013
2486.00,0.0013
2485.00,0.0013
2484.00,0.0012
2483.00,0.0012
2482.00,0.0012
2481.00,0.0012
2480.00,0.0012
2479.00,0.0012
2478.00,0.0012
2477.00,0.0012
2476.00,0.0011
2475.00,0.0011
2474.00,0.0011
2473.00,0.0011
2472.00,0.0012
2471.00,0.0012
2470.00,0.0012
2469.00,0.0012
2468.00,0.0011
2467.00,0.0011
2466.00,0.0011
2465.00,0.0011
2464.00,0.0012
2463.00,0.0012
2462.00,0.0012
2461.00,0.0012
2460.00,0.0012
2459.00,0.0012
2458.00,0.0012
2457.00,0.0013
2456.00,0.0013
2455.00,0.0013
2454.00,0.0013
2453.00,0.0013
2452.00,0.0012
2451.00,0.0012
2450.00,0.0012
2449.00,0.0012
2448.00,0.0012
2447.00,0.0012
2446.00,0.0012
2445.00,0.0012
2444.00,0.0011
2443.00,0.0011
2442.00,0.0011
2441.00,0.0012
2440.00,0.0012
2439.00,0.0012
2438.00,0.0011
2437.00,0.0011
2436.00,0.0011
2435.00,0.0011
2434.00,0.0011
2433.00,0.0011
2432.00,0.0011
2431.00,0.0011
2430.00,0.0011
2429.00,0.0011
2428.00,0.0011
2427.00,0.0011
2426.00,0.0011
2425.00,0.0011
2424.00,0.0011
2423.00,0.0011
2422.00,0.0011
2421.00,0.0011
2420.00,0.0011
2419.00,0.0010
2418.00,0.0010
2417.00,0.0010
2416.00,0.0010
2415.00,0.0010
2414.00,0.0010
2413.00,0.0010
2412.00,0.0010
2411.00,0.0011
2410.00,0.0011
2409.00,0.0011
2408.00,0.0011
2407.00,0.0010
2406.00,0.0010
2405.00,0.0010
2404.00,0.0010
2403.00,0.0010
2402.00,0.0010
2401.00,0.0010
2400.00,0.0010
2399.00,0.0010
2398.00,0.0010
2397.00,0.0010
2396.00,0.0010
2395.00,0.0010
2394.00,0.0010
2393.00,0.0010
2392.00,0.0010
2391.00,0.0010
2390.00,0.0010
2389.00,0.0010
2388.00,0.0010
2387.00,0.0009
2386.00,0.0009
2385.00,0.0009
2384.00,0.0010
2383.00,0.0010
2382.00,0.0010
2381.00,0.0010
2380.00,0.0010
2379.00,0.0010
2378.00,0.0010
2377.00,0.0010
2376.00,0.0010
2375.00,0.0010
2374.00,0.0009
2373.00,0.0009
2372.00,0.0009
2371.00,0.0009
2370.00,0.0009
2369.00,0.0009
2368.00,0.0010
2367.00,0.0011
2366.00,0.0011
2365.00,0.0012
2364.00,0.0012
2363.00,0.0012
2362.00,0.0012
2361.00,0.0011
2360.00,0.0011
2359.00,0.0011
2358.00,0.0011
2357.00,0.0011
2356.00,0.0011
2355.00,0.0011
2354.00,0.0012
2353.00,0.0012
2352.00,0.0012
2351.00,0.0012
2350.00,0.0013
2349.00,0.0013
2348.00,0.0013
2347.00,0.0013
2346.00,0.0013
2345.00,0.0013
2344.00,0.0014
2343.00,0.0014
2342.00,0.0014
2341.00,0.0014
2340.00,0.0015
2339.00,0.0015
2338.00,0.0015
2337.00,0.0015
2336.00,0.0015
2335.00,0.0014
2334.00,0.0014
2333.00,0.0014
2332.00,0.0014
2331.00,0.0014
2330.00,0.0014
2329.00,0.0015
2328.00,0.0016
2327.00,0.0017
2326.00,0.0019
2325.00,0.0020
2324.00,0.0020
2323.00,0.0019
2322.00,0.0018
2321.00,0.0018
2320.00,0.0017
2319.00,0.0016
2318.00,0.0015
2317.00,0.0015
2316.00,0.0015
2315.00,0.0015
2314.00,0.0016
2313.00,0.0016
2312.00,0.0017
2311.00,0.0017
2310.00,0.0017
2309.00,0.0017
2308.00,0.0016
2307.00,0.0016
2306.00,0.0016
2305.00,0.0015
2304.00,0.0015
2303.00,0.0015
2302.00,0.0015
2301.00,0.0015
2300.00,0.0015
2299.00,0.0015
2298.00,0.0015
2297.00,0.0015
2296.00,0.0016
2295.00,0.0016
2294.00,0.0017
2293.00,0.0017
2292.00,0.0018
2291.00,0.0018
2290.00,0.0018
2289.00,0.0018
2288.00,0.0018
2287.00,0.0018
2286.00,0.0018
2285.00,0.0018
2284.00,0.0017
2283.00,0.0017
2282.00,0.0016
2281.00,0.0015
2280.00,0.0015
2279.00,0.0015
2278.00,0.0015
2277.00,0.0016
2276.00,0.0016
2275.00,0.0016
2274.00,0.0015
2273.00,0.0014
2272.00,0.0014
2271.00,0.0014
2270.00,0.0014
2269.00,0.0014
2268.00,0.0014
2267.00,0.0014
2266.00,0.0013
2265.00,0.0013
2264.00,0.0013
2263.00,0.0013
2262.00,0.0014
2261.00,0.0015
2260.00,0.0015
2259.00,0.0015
2258.00,0.0014
2257.00,0.0013
2256.00,0.0013
2255.00,0.0013
2254.00,0.0013
2253.00,0.0014
2252.00,0.0014
2251.00,0.0013
2250.00,0.0013
2249.00,0.0013
2248.00,0.0013
2247.00,0.0014
2246.00,0.0014
2245.00,0.0014
2244.00,0.0013
2243.00,0.0013
2242.00,0.0012
2241.00,0.0012
2240.00,0.0012
2239.00,0.0012
2238.00,0.0012
2237.00,0.0012
2236.00,0.0013
2235.00,0.0014
2234.00,0.0014
2233.00,0.0014
2232.00,0.0013
2231.00,0.0012
2230.00,0.0012
2229.00,0.0011
2228.00,0.0011
2227.00,0.0012
2226.00,0.0012
2225.00,0.0012
2224.00,0.0012
2223.00,0.0012
2222.00,0.0013
2221.00,0.0013
2220.00,0.0013
2219.00,0.0012
2218.00,0.0011
2217.00,0.0011
2216.00,0.0011
2215.00,0.0011
2214.00,0.0012
2213.00,0.0013
2212.00,0.0013
2211.00,0.0012
2210.00,0.0011
2209.00,0.0009
2208.00,0.0009
2207.00,0.0010
2206.00,0.0011
2205.00,0.0012
2204.00,0.0013
2203.00,0.0013
2202.00,0.0012
2201.00,0.0012
2200.00,0.0011
2199.00,0.0010
2198.00,0.0010
2197.00,0.0011
2196.00,0.0011
2195.00,0.0011
2194.00,0.0011
2193.00,0.0011
2192.00,0.0011
2191.00,0.0012
2190.00,0.0013
2189.00,0.0014
2188.00,0.0015
2187.00,0.0015
2186.00,0.0014
2185.00,0.0013
2184.00,0.0011
2183.00,0.0009
2182.00,0.0008
2181.00,0.0008
2180.00,0.0008
2179.00,0.0009
2178.00,0.0010
2177.00,0.0010
2176.00,0.0009
2175.00,0.0010
2174.00,0.0010
2173.00,0.0011
2172.00,0.0011
2171.00,0.0013
2170.00,0.0014
2169.00,0.0015
2168.00,0.0015
2167.00,0.0014
2166.00,0.0014
2165.00,0.0014
2164.00,0.0017
2163.00,0.0019
2162.00,0.0019
2161.00,0.0015
2160.00,0.0006
2159.00,-0.0002
2158.00,-0.0007
2157.00,-0.0008
2156.00,-0.0006
2155.00,-0.0004
2154.00,-0.0002
2153.00,0.0000
2152.00,0.0001
2151.00,0.0001
2150.00,0.0000
2149.00,-0.0001
2148.00,-0.0002
2147.00,-0.0002
2146.00,-0.0002
2145.00,-0.0001
2144.00,0.0000
2143.00,0.0002
2142.00,0.0002
2141.00,0.0002
2140.00,0.0001
2139.00,0.0000
2138.00,0.0000
2137.00,0.0000
2136.00,0.0000
2135.00,-0.0000
2134.00,-0.0001
2133.00,-0.0001
2132.00,-0.0001
2131.00,0.0001
2130.00,0.0003
2129.00,0.0004
2128.00,0.0005
2127.00,0.0005
2126.00,0.0005
2125.00,0.0005
2124.00,0.0006
2123.00,0.0006
2122.00,0.0006
2121.00,0.0006
2120.00,0.0006
2119.00,0.0007
2118.00,0.0008
2117.00,0.0009
2116.00,0.0009
2115.00,0.0009
2114.00,0.0009
2113.00,0.0009
2112.00,0.0009
2111.00,0.0010
2110.00,0.0010
2109.00,0.0010
2108.00,0.0009
2107.00,0.0009
2106.00,0.0009
2105.00,0.0009
2104.00,0.0009
2103.00,0.0008
2102.00,0.0008
2101.00,0.0009
2100.00,0.0009
2099.00,0.0009
2098.00,0.0009
2097.00,0.0008
2096.00,0.0007
2095.00,0.0007
2094.00,0.0007
2093.00,0.0007
2092.00,0.0008
2091.00,0.0008
2090.00,0.0008
2089.00,0.0009
2088.00,0.0009
2087.00,0.0010
2086.00,0.0010
2085.00,0.0010
2084.00,0.0011
2083.00,0.0011
2082.00,0.0011
2081.00,0.0011
2080.00,0.0012
2079.00,0.0012
2078.00,0.0012
2077.00,0.0012
2076.00,0.0011
2075.00,0.0011
2074.00,0.0010
2073.00,0.0010
2072.00,0.0010
2071.00,0.0010
2070.00,0.0010
2069.00,0.0009
2068.00,0.0008
2067.00,0.0007
2066.00,0.0007
2065.00,0.0008
2064.00,0.0008
2063.00,0.0008
2062.00,0.0008
2061.00,0.0009
2060.00,0.0009
2059.00,0.0009
2058.00,0.0009
2057.00,0.0008
2056.00,0.0006
2055.00,0.0006
2054.00,0.0008
2053.00,0.0011
2052.00,0.0014
2051.00,0.0015
2050.00,0.0014
2049.00,0.0012
2048.00,0.0010
2047.00,0.0009
2046.00,0.0009
2045.00,0.0010
2044.00,0.0010
2043.00,0.0011
2042.00,0.0011
2041.00,0.0011
2040.00,0.0011
2039.00,0.0010
2038.00,0.0010
2037.00,0.0009
2036.00,0.0009
2035.00,0.0009
2034.00,0.0008
2033.00,0.0007
2032.00,0.0007
2031.00,0.0007
2030.00,0.0007
2029.00,0.0007
2028.00,0.0008
2027.00,0.0008
2026.00,0.0007
2025.00,0.0006
2024.00,0.0005
2023.00,0.0004
2022.00,0.0003
2021.00,0.0003
2020.00,0.0003
2019.00,0.0004
2018.00,0.0005
2017.00,0.0007
2016.00,0.0008
2015.00,0.0009
2014.00,0.0008
2013.00,0.0007
2012.00,0.0006
2011.00,0.0006
2010.00,0.0005
2009.00,0.0005
2008.00,0.0005
2007.00,0.0004
2006.00,0.0003
2005.00,0.0002
2004.00,0.0002
2003.00,0.0003
2002.00,0.0003
2001.00,0.0004
2000.00,0.0005
1999.00,0.0007
1998.00,0.0008
1997.00,0.0010
1996.00,0.0011
1995.00,0.0012
1994.00,0.0012
1993.00,0.0012
1992.00,0.0012
1991.00,0.0012
1990.00,0.0013
1989.00,0.0014
1988.00,0.0016
1987.00,0.0016
1986.00,0.0016
1985.00,0.0015
1984.00,0.0014
1983.00,0.0015
1982.00,0.0016
1981.00,0.0016
1980.00,0.0015
1979.00,0.0013
1978.00,0.0010
1977.00,0.0008
1976.00,0.0007
1975.00,0.0006
1974.00,0.0006
1973.00,0.0006
1972.00,0.0006
1971.00,0.0007
1970.00,0.0008
1969.00,0.0009
1968.00,0.0010
1967.00,0.0010
1966.00,0.0011
1965.00,0.0011
1964.00,0.0011
1963.00,0.0011
1962.00,0.0012
1961.00,0.0013
1960.00,0.0014
1959.00,0.0014
1958.00,0.0015
1957.00,0.0016
1956.00,0.0017
1955.00,0.0019
1954.00,0.0020
1953.00,0.0021
1952.00,0.0022
1951.00,0.0023
1950.00,0.0024
1949.00,0.0024
1948.00,0.0024
1947.00,0.0025
1946.00,0.0025
1945.00,0.0026
1944.00,0.0027
1943.00,0.0028
1942.00,0.0028
1941.00,0.0027
1940.00,0.0026
1939.00,0.0025
1938.00,0.0024
1937.00,0.0023
1936.00,0.0022
1935.00,0.0021
1934.00,0.0019
1933.00,0.0017
1932.00,0.0016
1931.00,0.0015
1930.00,0.0014
1929.00,0.0013
1928.00,0.0013
1927.00,0.0012
1926.00,0.0012
1925.00,0.0011
1924.00,0.0011
1923.00,0.0011
1922.00,0.0010
1921.00,0.0010
1920.00,0.0010
1919.00,0.0010
1918.00,0.0010
1917.00,0.0010
1916.00,0.0010
1915.00,0.0010
1914.00,0.0010
1913.00,0.0010
1912.00,0.0010
1911.00,0.0010
1910.00,0.0009
1909.00,0.0009
1908.00,0.0009
1907.00,0.0009
1906.00,0.0010
1905.00,0.0010
1904.00,0.0010
1903.00,0.0010
1902.00,0.0010
1901.00,0.0011
1900.00,0.0011
1899.00,0.0012
1898.00,0.0013
1897.00,0.0014
1896.00,0.0015
1895.00,0.0015
1894.00,0.0016
1893.00,0.0016
1892.00,0.0017
1891.00,0.0018
1890.00,0.0018
1889.00,0.0019
1888.00,0.0019
1887.00,0.0020
1886.00,0.0020
1885.00,0.0021
1884.00,0.0021
1883.00,0.0022
1882.00,0.0022
1881.00,0.0023
1880.00,0.0023
1879.00,0.0024
1878.00,0.0024
1877.00,0.0024
1876.00,0.0024
1875.00,0.0024
1874.00,0.0025
1873.00,0.0026
1872.00,0.0026
1871.00,0.0027
1870.00,0.0027
1869.00,0.0027
1868.00,0.0027
1867.00,0.0026
1866.00,0.0026
1865.00,0.0025
1864.00,0.0024
1863.00,0.0024
1862.00,0.0023
1861.00,0.0021
1860.00,0.0020
1859.00,0.0018
1858.00,0.0017
1857.00,0.0016
1856.00,0.0015
1855.00,0.0015
1854.00,0.0014
1853.00,0.0012
1852.00,0.0012
1851.00,0.0011
1850.00,0.0011
1849.00,0.0011
1848.00,0.0011
1847.00,0.0012
1846.00,0.0011
1845.00,0.0011
1844.00,0.0011
1843.00,0.0011
1842.00,0.0011
1841.00,0.0011
1840.00,0.0011
1839.00,0.0012
1838.00,0.0012
1837.00,0.0012
1836.00,0.0012
1835.00,0.0012
1834.00,0.0012
1833.00,0.0012
1832.00,0.0013
1831.00,0.0013
1830.00,0.0013
1829.00,0.0014
1828.00,0.0014
1827.00,0.0014
1826.00,0.0015
1825.00,0.0015
1824.00,0.0016
1823.00,0.0017
1822.00,0.0018
1821.00,0.0018
1820.00,0.0018
1819.00,0.0019
1818.00,0.0019
1817.00,0.0019
1816.00,0.0020
1815.00,0.0021
1814.00,0.0022
1813.00,0.0024
1812.00,0.0024
1811.00,0.0025
1810.00,0.0026
1809.00,0.0027
1808.00,0.0027
1807.00,0.0028
1806.00,0.0029
1805.00,0.0030
1804.00,0.0030
1803.00,0.0030
1802.00,0.0030
1801.00,0.0030
1800.00,0.0030
1799.00,0.0030
1798.00,0.0029
1797.00,0.0028
1796.00,0.0027
1795.00,0.0026
1794.00,0.0025
1793.00,0.0024
1792.00,0.0023
1791.00,0.0022
1790.00,0.0021
1789.00,0.0019
1788.00,0.0018
1787.00,0.0018
1786.00,0.0017
1785.00,0.0017
1784.00,0.0016
1783.00,0.0016
1782.00,0.0016
1781.00,0.0017
1780.00,0.0017
1779.00,0.0017
1778.00,0.0017
1777.00,0.0017
1776.00,0.0017
1775.00,0.0017
1774.00,0.0017
1773.00,0.0018
1772.00,0.0018
1771.00,0.0018
1770.00,0.0018
1769.00,0.0018
1768.00,0.0018
1767.00,0.0018
1766.00,0.0018
1765.00,0.0018
1764.00,0.0018
1763.00,0.0019
1762.00,0.0019
1761.00,0.0020
1760.00,0.0021
1759.00,0.0022
1758.00,0.0023
1757.00,0.0024
1756.00,0.0025
1755.00,0.0026
1754.00,0.0027
1753.00,0.0028
1752.00,0.0029
1751.00,0.0030
1750.00,0.0031
1749.00,0.0032
1748.00,0.0033
1747.00,0.0033
1746.00,0.0034
1745.00,0.0034
1744.00,0.0035
1743.00,0.0035
1742.00,0.0035
1741.00,0.0034
1740.00,0.0034
1739.00,0.0034
1738.00,0.0034
1737.00,0.0034
1736.00,0.0034
1735.00,0.0034
1734.00,0.0033
1733.00,0.0032
1732.00,0.0032
1731.00,0.0031
1730.00,0.0030
1729.00,0.0030
1728.00,0.0029
1727.00,0.0028
1726.00,0.0028
1725.00,0.0028
1724.00,0.0027
1723.00,0.0027
1722.00,0.0026
1721.00,0.0026
1720.00,0.0026
1719.00,0.0026
1718.00,0.0026
1717.00,0.0025
1716.00,0.0025
1715.00,0.0025
1714.00,0.0025
1713.00,0.0024
1712.00,0.0024
1711.00,0.0024
1710.00,0.0024
1709.00,0.0024
1708.00,0.0024
1707.00,0.0024
1706.00,0.0024
1705.00,0.0023
1704.00,0.0023
1703.00,0.0023
1702.00,0.0024
1701.00,0.0024
1700.00,0.0023
1699.00,0.0023
1698.00,0.0023
1697.00,0.0023
1696.00,0.0023
1695.00,0.0023
1694.00,0.0023
1693.00,0.0023
1692.00,0.0023
1691.00,0.0023
1690.00,0.0023
1689.00,0.0023
1688.00,0.0023
1687.00,0.0023
1686.00,0.0024
1685.00,0.0024
1684.00,0.0025
1683.00,0.0025
1682.00,0.0025
1681.00,0.0025
1680.00,0.0025
1679.00,0.0025
1678.00,0.0026
1677.00,0.0026
1676.00,0.0026
1675.00,0.0026
1674.00,0.0026
1673.00,0.0027
1672.00,0.0027
1671.00,0.0027
1670.00,0.0028
1669.00,0.0028
1668.00,0.0027
1667.00,0.0027
1666.00,0.0027
1665.00,0.0027
1664.00,0.0027
1663.00,0.0027
1662.00,0.0026
1661.00,0.0026
1660.00,0.0026
1659.00,0.0026
1658.00,0.0025
1657.00,0.0025
1656.00,0.0025
1655.00,0.0025
1654.00,0.0024
1653.00,0.0023
1652.00,0.0023
1651.00,0.0023
1650.00,0.0023
1649.00,0.0023
1648.00,0.0023
1647.00,0.0023
1646.00,0.0023
1645.00,0.0023
1644.00,0.0022
1643.00,0.0022
1642.00,0.0022
1641.00,0.0022
1640.00,0.0022
1639.00,0.0022
1638.00,0.0022
1637.00,0.0022
1636.00,0.0022
1635.00,0.0022
1634.00,0.0022
1633.00,0.0022
1632.00,0.0022
1631.00,0.0022
1630.00,0.0022
1629.00,0.0023
1628.00,0.0023
1627.00,0.0023
1626.00,0.0023
1625.00,0.0024
1624.00,0.0024
1623.00,0.0024
1622.00,0.0025
1621.00,0.0025
1620.00,0.0025
1619.00,0.0025
1618.00,0.0026
1617.00,0.0027
1616.00,0.0028
1615.00,0.0030
1614.00,0.0032
1613.00,0.0034
1612.00,0.0037
1611.00,0.0042
1610.00,0.0048
1609.00,0.0057
1608.00,0.0068
1607.00,0.0082
1606.00,0.0099
1605.00,0.0118
1604.00,0.0138
1603.00,0.0156
1602.00,0.0168
1601.00,0.0173
1600.00,0.0169
1599.00,0.0157
1598.00,0.0141
1597.00,0.0122
1596.00,0.0105
1595.00,0.0091
1594.00,0.0079
1593.00,0.0070
1592.00,0.0063
1591.00,0.0058
1590.00,0.0055
1589.00,0.0053
1588.00,0.0053
1587.00,0.0056
1586.00,0.0061
1585.00,0.0067
1584.00,0.0072
1583.00,0.0073
1582.00,0.0070
1581.00,0.0063
1580.00,0.0055
1579.00,0.0048
1578.00,0.0041
1577.00,0.0036
1576.00,0.0032
1575.00,0.0029
1574.00,0.0027
1573.00,0.0026
1572.00,0.0025
1571.00,0.0024
1570.00,0.0023
1569.00,0.0022
1568.00,0.0022
1567.00,0.0022
1566.00,0.0022
1565.00,0.0021
1564.00,0.0021
1563.00,0.0021
1562.00,0.0021
1561.00,0.0021
1560.00,0.0021
1559.00,0.0021
1558.00,0.0022
1557.00,0.0023
1556.00,0.0023
1555.00,0.0024
1554.00,0.0024
1553.00,0.0025
1552.00,0.0026
1551.00,0.0027
1550.00,0.0028
1549.00,0.0028
1548.00,0.0029
1547.00,0.0030
1546.00,0.0031
1545.00,0.0031
1544.00,0.0031
1543.00,0.0031
1542.00,0.0030
1541.00,0.0030
1540.00,0.0029
1539.00,0.0029
1538.00,0.0029
1537.00,0.0029
1536.00,0.0028
1535.00,0.0028
1534.00,0.0028
1533.00,0.0027
1532.00,0.0026
1531.00,0.0025
1530.00,0.0025
1529.00,0.0025
1528.00,0.0025
1527.00,0.0024
1526.00,0.0024
1525.00,0.0024
1524.00,0.0024
1523.00,0.0023
1522.00,0.0023
1521.00,0.0023
1520.00,0.0023
1519.00,0.0024
1518.00,0.0024
1517.00,0.0025
1516.00,0.0025
1515.00,0.0025
1514.00,0.0026
1513.00,0.0026
1512.00,0.0027
1511.00,0.0028
1510.00,0.0029
1509.00,0.0030
1508.00,0.0031
1507.00,0.0033
1506.00,0.0035
1505.00,0.0038
1504.00,0.0042
1503.00,0.0046
1502.00,0.0052
1501.00,0.0061
1500.00,0.0074
1499.00,0.0094
1498.00,0.0128
1497.00,0.0181
1496.00,0.0251
1495.00,0.0326
1494.00,0.0389
1493.00,0.0427
1492.00,0.0432
1491.00,0.0397
1490.00,0.0333
1489.00,0.0263
1488.00,0.0206
1487.00,0.0166
1486.00,0.0136
1485.00,0.0114
1484.00,0.0097
1483.00,0.0084
1482.00,0.0073
1481.00,0.0064
1480.00,0.0058
1479.00,0.0054
1478.00,0.0051
1477.00,0.0048
1476.00,0.0047
1475.00,0.0045
1474.00,0.0044
1473.00,0.0043
1472.00,0.0043
1471.00,0.0044
1470.00,0.0044
1469.00,0.0045
1468.00,0.0046
1467.00,0.0047
1466.00,0.0049
1465.00,0.0051
1464.00,0.0054
1463.00,0.0057
1462.00,0.0062
1461.00,0.0068
1460.00,0.0077
1459.00,0.0091
1458.00,0.0120
1457.00,0.0173
1456.00,0.0242
1455.00,0.0310
1454.00,0.0369
1453.00,0.0414
1452.00,0.0438
1451.00,0.0436
1450.00,0.0413
1449.00,0.0379
1448.00,0.0343
1447.00,0.0311
1446.00,0.0285
1445.00,0.0263
1444.00,0.0242
1443.00,0.0222
1442.00,0.0203
1441.00,0.0187
1440.00,0.0173
1439.00,0.0160
1438.00,0.0146
1437.00,0.0131
1436.00,0.0116
1435.00,0.0103
1434.00,0.0094
1433.00,0.0086
1432.00,0.0078
1431.00,0.0071
1430.00,0.0065
1429.00,0.0059
1428.00,0.0055
1427.00,0.0052
1426.00,0.0050
1425.00,0.0048
1424.00,0.0046
1423.00,0.0044
1422.00,0.0042
1421.00,0.0041
1420.00,0.0041
1419.00,0.0040
1418.00,0.0040
1417.00,0.0039
1416.00,0.0038
1415.00,0.0037
1414.00,0.0036
1413.00,0.0036
1412.00,0.0035
1411.00,0.0035
1410.00,0.0034
1409.00,0.0034
1408.00,0.0034
1407.00,0.0034
1406.00,0.0033
1405.00,0.0033
1404.00,0.0033
1403.00,0.0033
1402.00,0.0032
1401.00,0.0032
1400.00,0.0032
1399.00,0.0032
1398.00,0.0032
1397.00,0.0033
1396.00,0.0033
1395.00,0.0034
1394.00,0.0035
1393.00,0.0037
1392.00,0.0039
1391.00,0.0041
1390.00,0.0044
1389.00,0.0047
1388.00,0.0050
1387.00,0.0053
1386.00,0.0056
1385.00,0.0060
1384.00,0.0062
1383.00,0.0065
1382.00,0.0067
1381.00,0.0070
1380.00,0.0073
1379.00,0.0076
1378.00,0.0079
1377.00,0.0082
1376.00,0.0085
1375.00,0.0087
1374.00,0.0089
1373.00,0.0090
1372.00,0.0091
1371.00,0.0091
1370.00,0.0091
1369.00,0.0091
1368.00,0.0091
1367.00,0.0090
1366.00,0.0090
1365.00,0.0090
1364.00,0.0089
1363.00,0.0089
1362.00,0.0088
1361.00,0.0087
1360.00,0.0085
1359.00,0.0084
1358.00,0.0083
1357.00,0.0082
1356.00,0.0081
1355.00,0.0081
1354.00,0.0081
1353.00,0.0081
1352.00,0.0081
1351.00,0.0081
1350.00,0.0081
1349.00,0.0081
1348.00,0.0080
1347.00,0.0080
1346.00,0.0078
1345.00,0.0077
1344.00,0.0075
1343.00,0.0074
1342.00,0.0072
1341.00,0.0071
1340.00,0.0070
1339.00,0.0070
1338.00,0.0069
1337.00,0.0069
1336.00,0.0070
1335.00,0.0071
1334.00,0.0073
1333.00,0.0075
1332.00,0.0077
1331.00,0.0079
1330.00,0.0081
1329.00,0.0082
1328.00,0.0082
1327.00,0.0082
1326.00,0.0081
1325.00,0.0080
1324.00,0.0078
1323.00,0.0077
1322.00,0.0076
1321.00,0.0076
1320.00,0.0076
1319.00,0.0076
1318.00,0.0076
1317.00,0.0077
1316.00,0.0078
1315.00,0.0079
1314.00,0.0080
1313.00,0.0081
1312.00,0.0081
1311.00,0.0081
1310.00,0.0080
1309.00,0.0079
1308.00,0.0078
1307.00,0.0077
1306.00,0.0076
1305.00,0.0074
1304.00,0.0073
1303.00,0.0071
1302.00,0.0070
1301.00,0.0068
1300.00,0.0067
1299.00,0.0066
1298.00,0.0065
1297.00,0.0065
1296.00,0.0064
1295.00,0.0064
1294.00,0.0064
1293.00,0.0063
1292.00,0.0063
1291.00,0.0062
1290.00,0.0062
1289.00,0.0061
1288.00,0.0061
1287.00,0.0060
1286.00,0.0060
1285.00,0.0059
1284.00,0.0059
1283.00,0.0059
1282.00,0.0058
1281.00,0.0058
1280.00,0.0058
1279.00,0.0057
1278.00,0.0056
1277.00,0.0055
1276.00,0.0054
1275.00,0.0052
1274.00,0.0051
1273.00,0.0050
1272.00,0.0048
1271.00,0.0047
1270.00,0.0046
1269.00,0.0045
1268.00,0.0044
1267.00,0.0043
1266.00,0.0043
1265.00,0.0042
1264.00,0.0041
1263.00,0.0041
1262.00,0.0040
1261.00,0.0040
1260.00,0.0040
1259.00,0.0040
1258.00,0.0040
1257.00,0.0040
1256.00,0.0040
1255.00,0.0040
1254.00,0.0040
1253.00,0.0041
1252.00,0.0041
1251.00,0.0041
1250.00,0.0042
1249.00,0.0042
1248.00,0.0043
1247.00,0.0043
1246.00,0.0043
1245.00,0.0044
1244.00,0.0044
1243.00,0.0044
1242.00,0.0044
1241.00,0.0044
1240.00,0.0043
1239.00,0.0043
1238.00,0.0043
1237.00,0.0043
1236.00,0.0043
1235.00,0.0043
1234.00,0.0044
1233.00,0.0044
1232.00,0.0044
1231.00,0.0044
1230.00,0.0045
1229.00,0.0045
1228.00,0.0046
1227.00,0.0046
1226.00,0.0046
1225.00,0.0046
1224.00,0.0046
1223.00,0.0046
1222.00,0.0046
1221.00,0.0046
1220.00,0.0046
1219.00,0.0046
1218.00,0.0046
1217.00,0.0047
1216.00,0.0047
1215.00,0.0048
1214.00,0.0049
1213.00,0.0049
1212.00,0.0050
1211.00,0.0051
1210.00,0.0053
1209.00,0.0054
1208.00,0.0055
1207.00,0.0056
1206.00,0.0058
1205.00,0.0060
1204.00,0.0062
1203.00,0.0063
1202.00,0.0065
1201.00,0.0067
1200.00,0.0068
1199.00,0.0070
1198.00,0.0071
1197.00,0.0072
1196.00,0.0072
1195.00,0.0073
1194.00,0.0073
1193.00,0.0074
1192.00,0.0074
1191.00,0.0074
1190.00,0.0074
1189.00,0.0075
1188.00,0.0076
1187.00,0.0078
1186.00,0.0082
1185.00,0.0085
1184.00,0.0090
1183.00,0.0094
1182.00,0.0096
1181.00,0.0097
1180.00,0.0095
1179.00,0.0091
1178.00,0.0084
1177.00,0.0077
1176.00,0.0071
1175.00,0.0065
1174.00,0.0061
1173.00,0.0058
1172.00,0.0057
1171.00,0.0055
1170.00,0.0054
1169.00,0.0053
1168.00,0.0053
1167.00,0.0053
1166.00,0.0053
1165.00,0.0054
1164.00,0.0054
1163.00,0.0055
1162.00,0.0057
1161.00,0.0060
1160.00,0.0065
1159.00,0.0071
1158.00,0.0078
1157.00,0.0085
1156.00,0.0091
1155.00,0.0095
1154.00,0.0095
1153.00,0.0091
1152.00,0.0085
1151.00,0.0077
1150.00,0.0069
1149.00,0.0062
1148.00,0.0057
1147.00,0.0052
1146.00,0.0049
1145.00,0.0047
1144.00,0.0045
1143.00,0.0043
1142.00,0.0041
1141.00,0.0040
1140.00,0.0038
1139.00,0.0038
1138.00,0.0037
1137.00,0.0037
1136.00,0.0036
1135.00,0.0036
1134.00,0.0035
1133.00,0.0035
1132.00,0.0035
1131.00,0.0035
1130.00,0.0036
1129.00,0.0036
1128.00,0.0037
1127.00,0.0037
1126.00,0.0038
1125.00,0.0039
1124.00,0.0040
1123.00,0.0040
1122.00,0.0041
1121.00,0.0042
1120.00,0.0044
1119.00,0.0046
1118.00,0.0048
1117.00,0.0050
1116.00,0.0052
1115.00,0.0054
1114.00,0.0055
1113.00,0.0056
1112.00,0.0057
1111.00,0.0057
1110.00,0.0057
1109.00,0.0057
1108.00,0.0057
1107.00,0.0056
1106.00,0.0056
1105.00,0.0056
1104.00,0.0056
1103.00,0.0056
1102.00,0.0056
1101.00,0.0057
1100.00,0.0057
1099.00,0.0057
1098.00,0.0058
1097.00,0.0058
1096.00,0.0059
1095.00,0.0060
1094.00,0.0061
1093.00,0.0062
1092.00,0.0063
1091.00,0.0064
1090.00,0.0065
1089.00,0.0067
1088.00,0.0068
1087.00,0.0070
1086.00,0.0072
1085.00,0.0075
1084.00,0.0078
1083.00,0.0081
1082.00,0.0085
1081.00,0.0088
1080.00,0.0091
1079.00,0.0094
1078.00,0.0097
1077.00,0.0101
1076.00,0.0106
1075.00,0.0111
1074.00,0.0117
1073.00,0.0123
1072.00,0.0129
1071.00,0.0134
1070.00,0.0137
1069.00,0.0139
1068.00,0.0139
1067.00,0.0137
1066.00,0.0134
1065.00,0.0129
1064.00,0.0124
1063.00,0.0118
1062.00,0.0112
1061.00,0.0108
1060.00,0.0103
1059.00,0.0100
1058.00,0.0097
1057.00,0.0094
1056.00,0.0091
1055.00,0.0088
1054.00,0.0085
1053.00,0.0083
1052.00,0.0082
1051.00,0.0080
1050.00,0.0079
1049.00,0.0078
1048.00,0.0077
1047.00,0.0076
1046.00,0.0075
1045.00,0.0075
1044.00,0.0075
1043.00,0.0075
1042.00,0.0076
1041.00,0.0078
1040.00,0.0080
1039.00,0.0083
1038.00,0.0089
1037.00,0.0097
1036.00,0.0109
1035.00,0.0125
1034.00,0.0145
1033.00,0.0168
1032.00,0.0191
1031.00,0.0213
1030.00,0.0231
1029.00,0.0243
1028.00,0.0248
1027.00,0.0244
1026.00,0.0233
1025.00,0.0217
1024.00,0.0200
1023.00,0.0184
1022.00,0.0170
1021.00,0.0158
1020.00,0.0148
1019.00,0.0140
1018.00,0.0133
1017.00,0.0126
1016.00,0.0120
1015.00,0.0116
1014.00,0.0112
1013.00,0.0108
1012.00,0.0105
1011.00,0.0102
1010.00,0.0100
1009.00,0.0099
1008.00,0.0099
1007.00,0.0101
1006.00,0.0103
1005.00,0.0106
1004.00,0.0108
1003.00,0.0108
1002.00,0.0106
1001.00,0.0102
1000.00,0.0096
999.00,0.0090
998.00,0.0085
997.00,0.0082
996.00,0.0080
995.00,0.0079
994.00,0.0078
993.00,0.0078
992.00,0.0078
991.00,0.0079
990.00,0.0080
989.00,0.0081
988.00,0.0082
987.00,0.0084
986.00,0.0086
985.00,0.0089
984.00,0.0091
983.00,0.0093
982.00,0.0095
981.00,0.0096
980.00,0.0097
979.00,0.0096
978.00,0.0095
977.00,0.0092
976.00,0.0089
975.00,0.0087
974.00,0.0085
973.00,0.0084
972.00,0.0084
971.00,0.0085
970.00,0.0087
969.00,0.0090
968.00,0.0093
967.00,0.0096
966.00,0.0099
965.00,0.0101
964.00,0.0101
963.00,0.0100
962.00,0.0098
961.00,0.0094
960.00,0.0089
959.00,0.0084
958.00,0.0079
957.00,0.0076
956.00,0.0073
955.00,0.0071
954.00,0.0070
953.00,0.0069
952.00,0.0069
951.00,0.0070
950.00,0.0071
949.00,0.0072
948.00,0.0074
947.00,0.0075
946.00,0.0077
945.00,0.0079
944.00,0.0080
943.00,0.0080
942.00,0.0080
941.00,0.0079
940.00,0.0077
939.00,0.0075
938.00,0.0073
937.00,0.0071
936.00,0.0068
935.00,0.0066
934.00,0.0064
933.00,0.0062
932.00,0.0060
931.00,0.0059
930.00,0.0058
929.00,0.0058
928.00,0.0058
927.00,0.0058
926.00,0.0059
925.00,0.0059
924.00,0.0061
923.00,0.0062
922.00,0.0064
921.00,0.0066
920.00,0.0069
919.00,0.0073
918.00,0.0077
917.00,0.0082
916.00,0.0088
915.00,0.0095
914.00,0.0105
913.00,0.0115
912.00,0.0127
911.00,0.0138
910.00,0.0150
909.00,0.0160
908.00,0.0168
907.00,0.0173
906.00,0.0174
905.00,0.0171
904.00,0.0163
903.00,0.0153
902.00,0.0141
901.00,0.0128
900.00,0.0115
899.00,0.0103
898.00,0.0093
897.00,0.0084
896.00,0.0077
895.00,0.0072
894.00,0.0068
893.00,0.0065
892.00,0.0063
891.00,0.0061
890.00,0.0059
889.00,0.0057
888.00,0.0055
887.00,0.0054
886.00,0.0052
885.00,0.0051
884.00,0.0050
883.00,0.0049
882.00,0.0049
881.00,0.0048
880.00,0.0047
879.00,0.0046
878.00,0.0046
877.00,0.0045
876.00,0.0045
875.00,0.0044
874.00,0.0044
873.00,0.0044
872.00,0.0044
871.00,0.0044
870.00,0.0044
869.00,0.0044
868.00,0.0043
867.00,0.0043
866.00,0.0042
865.00,0.0042
864.00,0.0041
863.00,0.0041
862.00,0.0041
861.00,0.0042
860.00,0.0042
859.00,0.0042
858.00,0.0043
857.00,0.0043
856.00,0.0044
855.00,0.0045
854.00,0.0046
853.00,0.0048
852.00,0.0051
851.00,0.0054
850.00,0.0058
849.00,0.0062
848.00,0.0067
847.00,0.0072
846.00,0.0077
845.00,0.0082
844.00,0.0085
843.00,0.0087
842.00,0.0088
841.00,0.0088
840.00,0.0086
839.00,0.0084
838.00,0.0080
837.00,0.0075
836.00,0.0069
835.00,0.0063
834.00,0.0058
833.00,0.0053
832.00,0.0049
831.00,0.0046
830.00,0.0044
829.00,0.0042
828.00,0.0041
827.00,0.0040
826.00,0.0039
825.00,0.0039
824.00,0.0038
823.00,0.0038
822.00,0.0038
821.00,0.0038
820.00,0.0038
819.00,0.0039
818.00,0.0039
817.00,0.0040
816.00,0.0040
815.00,0.0040
814.00,0.0040
813.00,0.0041
812.00,0.0042
811.00,0.0042
810.00,0.0043
809.00,0.0043
808.00,0.0043
807.00,0.0043
806.00,0.0044
805.00,0.0044
804.00,0.0044
803.00,0.0044
802.00,0.0045
801.00,0.0047
800.00,0.0049
799.00,0.0051
798.00,0.0053
797.00,0.0056
796.00,0.0058
795.00,0.0061
794.00,0.0064
793.00,0.0068
792.00,0.0073
791.00,0.0077
790.00,0.0083
789.00,0.0088
788.00,0.0094
787.00,0.0100
786.00,0.0106
785.00,0.0113
784.00,0.0119
783.00,0.0127
782.00,0.0135
781.00,0.0145
780.00,0.0156
779.00,0.0168
778.00,0.0182
777.00,0.0198
776.00,0.0216
775.00,0.0236
774.00,0.0257
773.00,0.0281
772.00,0.0306
771.00,0.0333
770.00,0.0362
769.00,0.0392
768.00,0.0423
767.00,0.0452
766.00,0.0481
765.00,0.0509
764.00,0.0538
763.00,0.0567
762.00,0.0597
761.00,0.0628
760.00,0.0657
759.00,0.0685
758.00,0.0709
757.00,0.0728
756.00,0.0741
755.00,0.0747
754.00,0.0748
753.00,0.0747
752.00,0.0744
751.00,0.0741
750.00,0.0739
749.00,0.0737
748.00,0.0731
747.00,0.0720
746.00,0.0700
745.00,0.0668
744.00,0.0627
743.00,0.0578
742.00,0.0527
741.00,0.0477
740.00,0.0430
739.00,0.0386
738.00,0.0347
737.00,0.0311
736.00,0.0277
735.00,0.0244
734.00,0.0214
733.00,0.0186
732.00,0.0161
731.00,0.0141
730.00,0.0125
729.00,0.0114
728.00,0.0105
727.00,0.0099
726.00,0.0094
725.00,0.0092
724.00,0.0090
723.00,0.0089
722.00,0.0088
721.00,0.0088
720.00,0.0089
719.00,0.0090
718.00,0.0093
717.00,0.0097
716.00,0.0103
715.00,0.0111
714.00,0.0123
713.00,0.0140
712.00,0.0164
711.00,0.0196
710.00,0.0239
709.00,0.0296
708.00,0.0369
707.00,0.0460
706.00,0.0571
705.00,0.0701
704.00,0.0849
703.00,0.1013
702.00,0.1192
701.00,0.1382
700.00,0.1578
699.00,0.1776
698.00,0.1969
697.00,0.2145
696.00,0.2280
695.00,0.2342
694.00,0.2306
693.00,0.2167
692.00,0.1951
691.00,0.1702
690.00,0.1462
689.00,0.1251
688.00,0.1076
687.00,0.0937
686.00,0.0828
685.00,0.0741
684.00,0.0670
683.00,0.0611
682.00,0.0562
681.00,0.0520
680.00,0.0483
679.00,0.0451
678.00,0.0423
677.00,0.0399
676.00,0.0379
675.00,0.0362
674.00,0.0347
673.00,0.0335
672.00,0.0323
671.00,0.0313
670.00,0.0304
669.00,0.0293
668.00,0.0280
667.00,0.0267
666.00,0.0257
665.00,0.0249
664.00,0.0240
663.00,0.0229
662.00,0.0219
661.00,0.0209
660.00,0.0199
659.00,0.0190
658.00,0.0182
657.00,0.0174
656.00,0.0166
655.00,0.0159
654.00,0.0153
653.00,0.0147
652.00,0.0141
651.00,0.0136
650.00,0.0132
649.00,0.0128
648.00,0.0124
647.00,0.0121
646.00,0.0118
645.00,0.0116
644.00,0.0113
643.00,0.0112
642.00,0.0111
641.00,0.0112
640.00,0.0112
639.00,0.0113
638.00,0.0116
637.00,0.0119
636.00,0.0122
635.00,0.0125
634.00,0.0128
633.00,0.0131
632.00,0.0134
631.00,0.0137
630.00,0.0139
629.00,0.0142
628.00,0.0144
627.00,0.0147
626.00,0.0149
625.00,0.0150
624.00,0.0152
623.00,0.0154
622.00,0.0158
621.00,0.0160
620.00,0.0160
619.00,0.0157
618.00,0.0152
617.00,0.0147
616.00,0.0143
615.00,0.0139
614.00,0.0136
613.00,0.0133
612.00,0.0129
611.00,0.0126
610.00,0.0123
609.00,0.0122
608.00,0.0122
607.00,0.0122
606.00,0.0122
605.00,0.0122
604.00,0.0122
603.00,0.0122
602.00,0.0123
601.00,0.0124
600.00,0.0125
599.00,0.0126
598.00,0.0129
597.00,0.0131
596.00,0.0132
595.00,0.0133
594.00,0.0135
593.00,0.0138
592.00,0.0140
591.00,0.0143
590.00,0.0146
589.00,0.0148
588.00,0.0150
587.00,0.0152
586.00,0.0154
585.00,0.0158
584.00,0.0162
583.00,0.0167
582.00,0.0173
581.00,0.0180
580.00,0.0187
579.00,0.0194
578.00,0.0202
577.00,0.0211
576.00,0.0220
575.00,0.0230
574.00,0.0241
573.00,0.0251
572.00,0.0262
571.00,0.0272
570.00,0.0283
569.00,0.0294
568.00,0.0304
567.00,0.0313
566.00,0.0323
565.00,0.0332
564.00,0.0342
563.00,0.0352
562.00,0.0362
561.00,0.0372
560.00,0.0381
559.00,0.0391
558.00,0.0402
557.00,0.0413
556.00,0.0424
555.00,0.0436
554.00,0.0448
553.00,0.0461
552.00,0.0475
551.00,0.0489
550.00,0.0505
549.00,0.0524
548.00,0.0543
547.00,0.0565
546.00,0.0588
545.00,0.0612
544.00,0.0639
543.00,0.0667
542.00,0.0694
541.00,0.0719
540.00,0.0740
539.00,0.0755
538.00,0.0762
537.00,0.0760
536.00,0.0746
535.00,0.0724
534.00,0.0693
533.00,0.0658
532.00,0.0619
531.00,0.0579
530.00,0.0540
529.00,0.0502
528.00,0.0467
527.00,0.0435
526.00,0.0405
525.00,0.0377
524.00,0.0353
523.00,0.0331
522.00,0.0313
521.00,0.0296
520.00,0.0281
519.00,0.0270
518.00,0.0263
517.00,0.0256
516.00,0.0249
515.00,0.0241
514.00,0.0232
513.00,0.0223
512.00,0.0215
511.00,0.0207
510.00,0.0200
509.00,0.0194
508.00,0.0188
507.00,0.0182
506.00,0.0177
505.00,0.0172
504.00,0.0168
503.00,0.0165
502.00,0.0161
501.00,0.0157
500.00,0.0151
499.00,0.0147
498.00,0.0144
497.00,0.0141
496.00,0.0138
495.00,0.0136
494.00,0.0134
493.00,0.0133
492.00,0.0131
491.00,0.0129
490.00,0.0129
489.00,0.0127
488.00,0.0124
487.00,0.0119
486.00,0.0115
485.00,0.0111
484.00,0.0109
483.00,0.0108
482.00,0.0108
481.00,0.0107
480.00,0.0105
479.00,0.0104
478.00,0.0104
477.00,0.0105
476.00,0.0106
475.00,0.0106
474.00,0.0106
473.00,0.0105
472.00,0.0102
471.00,0.0100
470.00,0.0099
469.00,0.0099
468.00,0.0099
467.00,0.0100
466.00,0.0103
465.00,0.0104
464.00,0.0101
463.00,0.0097
462.00,0.0094
461.00,0.0092
460.00,0.0091
459.00,0.0089
458.00,0.0088
457.00,0.0086
456.00,0.0084
455.00,0.0083
454.00,0.0083
453.00,0.0084
452.00,0.0083
451.00,0.0083
450.00,0.0086
449.00,0.0090
448.00,0.0092
447.00,0.0093
446.00,0.0094
445.00,0.0094
444.00,0.0093
443.00,0.0092
442.00,0.0091
441.00,0.0089
440.00,0.0084
439.00,0.0079
438.00,0.0075
437.00,0.0075
436.00,0.0077
435.00,0.0078
434.00,0.0080
433.00,0.0079
432.00,0.0077
431.00,0.0075
430.00,0.0074
429.00,0.0072
428.00,0.0068
427.00,0.0066
426.00,0.0066
425.00,0.0067
424.00,0.0066
423.00,0.0064
422.00,0.0064
421.00,0.0064
420.00,0.0065
419.00,0.0065
418.00,0.0066
417.00,0.0065
416.00,0.0063
415.00,0.0064
414.00,0.0068
413.00,0.0071
412.00,0.0073
411.00,0.0074
410.00,0.0076
409.00,0.0078
408.00,0.0077
407.00,0.0077
406.00,0.0083
405.00,0.0090
404.00,0.0091
403.00,0.0085
402.00,0.0076
401.00,0.0065
400.00,0.0054
