Created as New Dataset,Sample 742 By YargerLab Date Friday, June 27 2025
cm-1,A
4000.00,0.0013
3999.00,0.0013
3998.00,0.0013
3997.00,0.0013
3996.00,0.0013
3995.00,0.0013
3994.00,0.0013
3993.00,0.0013
3992.00,0.0013
3991.00,0.0013
3990.00,0.0012
3989.00,0.0012
3988.00,0.0012
3987.00,0.0012
3986.00,0.0012
3985.00,0.0012
3984.00,0.0012
3983.00,0.0012
3982.00,0.0012
3981.00,0.0012
3980.00,0.0012
3979.00,0.0012
3978.00,0.0012
3977.00,0.0012
3976.00,0.0012
3975.00,0.0012
3974.00,0.0012
3973.00,0.0012
3972.00,0.0012
3971.00,0.0013
3970.00,0.0013
3969.00,0.0013
3968.00,0.0013
3967.00,0.0013
3966.00,0.0012
3965.00,0.0012
3964.00,0.0012
3963.00,0.0012
3962.00,0.0012
3961.00,0.0012
3960.00,0.0012
3959.00,0.0012
3958.00,0.0012
3957.00,0.0012
3956.00,0.0012
3955.00,0.0012
3954.00,0.0012
3953.00,0.0012
3952.00,0.0012
3951.00,0.0012
3950.00,0.0012
3949.00,0.0012
3948.00,0.0013
3947.00,0.0013
3946.00,0.0013
3945.00,0.0013
3944.00,0.0013
3943.00,0.0013
3942.00,0.0013
3941.00,0.0013
3940.00,0.0013
3939.00,0.0013
3938.00,0.0013
3937.00,0.0013
3936.00,0.0013
3935.00,0.0013
3934.00,0.0013
3933.00,0.0013
3932.00,0.0013
3931.00,0.0012
3930.00,0.0012
3929.00,0.0012
3928.00,0.0012
3927.00,0.0012
3926.00,0.0012
3925.00,0.0012
3924.00,0.0013
3923.00,0.0013
3922.00,0.0013
3921.00,0.0013
3920.00,0.0013
3919.00,0.0013
3918.00,0.0013
3917.00,0.0013
3916.00,0.0013
3915.00,0.0012
3914.00,0.0012
3913.00,0.0012
3912.00,0.0012
3911.00,0.0012
3910.00,0.0012
3909.00,0.0012
3908.00,0.0012
3907.00,0.0012
3906.00,0.0012
3905.00,0.0013
3904.00,0.0013
3903.00,0.0013
3902.00,0.0013
3901.00,0.0013
3900.00,0.0012
3899.00,0.0012
3898.00,0.0012
3897.00,0.0012
3896.00,0.0012
3895.00,0.0012
3894.00,0.0012
3893.00,0.0012
3892.00,0.0012
3891.00,0.0012
3890.00,0.0012
3889.00,0.0013
3888.00,0.0013
3887.00,0.0013
3886.00,0.0013
3885.00,0.0013
3884.00,0.0013
3883.00,0.0013
3882.00,0.0013
3881.00,0.0013
3880.00,0.0013
3879.00,0.0013
3878.00,0.0013
3877.00,0.0013
3876.00,0.0013
3875.00,0.0013
3874.00,0.0013
3873.00,0.0013
3872.00,0.0013
3871.00,0.0013
3870.00,0.0013
3869.00,0.0012
3868.00,0.0012
3867.00,0.0012
3866.00,0.0012
3865.00,0.0012
3864.00,0.0012
3863.00,0.0012
3862.00,0.0012
3861.00,0.0012
3860.00,0.0012
3859.00,0.0012
3858.00,0.0012
3857.00,0.0011
3856.00,0.0011
3855.00,0.0011
3854.00,0.0011
3853.00,0.0012
3852.00,0.0012
3851.00,0.0012
3850.00,0.0012
3849.00,0.0012
3848.00,0.0012
3847.00,0.0013
3846.00,0.0013
3845.00,0.0013
3844.00,0.0013
3843.00,0.0013
3842.00,0.0013
3841.00,0.0013
3840.00,0.0013
3839.00,0.0012
3838.00,0.0012
3837.00,0.0012
3836.00,0.0012
3835.00,0.0012
3834.00,0.0012
3833.00,0.0012
3832.00,0.0013
3831.00,0.0013
3830.00,0.0012
3829.00,0.0012
3828.00,0.0012
3827.00,0.0012
3826.00,0.0012
3825.00,0.0013
3824.00,0.0013
3823.00,0.0013
3822.00,0.0013
3821.00,0.0013
3820.00,0.0013
3819.00,0.0013
3818.00,0.0013
3817.00,0.0012
3816.00,0.0012
3815.00,0.0012
3814.00,0.0012
3813.00,0.0012
3812.00,0.0012
3811.00,0.0012
3810.00,0.0013
3809.00,0.0013
3808.00,0.0012
3807.00,0.0012
3806.00,0.0012
3805.00,0.0012
3804.00,0.0012
3803.00,0.0012
3802.00,0.0012
3801.00,0.0013
3800.00,0.0013
3799.00,0.0013
3798.00,0.0013
3797.00,0.0013
3796.00,0.0013
3795.00,0.0013
3794.00,0.0013
3793.00,0.0013
3792.00,0.0012
3791.00,0.0012
3790.00,0.0012
3789.00,0.0012
3788.00,0.0012
3787.00,0.0012
3786.00,0.0012
3785.00,0.0012
3784.00,0.0012
3783.00,0.0012
3782.00,0.0012
3781.00,0.0012
3780.00,0.0012
3779.00,0.0012
3778.00,0.0012
3777.00,0.0013
3776.00,0.0013
3775.00,0.0012
3774.00,0.0012
3773.00,0.0012
3772.00,0.0013
3771.00,0.0013
3770.00,0.0012
3769.00,0.0012
3768.00,0.0012
3767.00,0.0012
3766.00,0.0012
3765.00,0.0012
3764.00,0.0013
3763.00,0.0013
3762.00,0.0013
3761.00,0.0013
3760.00,0.0014
3759.00,0.0014
3758.00,0.0014
3757.00,0.0014
3756.00,0.0013
3755.00,0.0013
3754.00,0.0013
3753.00,0.0013
3752.00,0.0013
3751.00,0.0012
3750.00,0.0012
3749.00,0.0012
3748.00,0.0012
3747.00,0.0012
3746.00,0.0012
3745.00,0.0012
3744.00,0.0012
3743.00,0.0012
3742.00,0.0012
3741.00,0.0013
3740.00,0.0013
3739.00,0.0013
3738.00,0.0014
3737.00,0.0014
3736.00,0.0014
3735.00,0.0014
3734.00,0.0014
3733.00,0.0014
3732.00,0.0014
3731.00,0.0014
3730.00,0.0013
3729.00,0.0013
3728.00,0.0013
3727.00,0.0013
3726.00,0.0013
3725.00,0.0013
3724.00,0.0013
3723.00,0.0013
3722.00,0.0012
3721.00,0.0012
3720.00,0.0012
3719.00,0.0012
3718.00,0.0012
3717.00,0.0012
3716.00,0.0012
3715.00,0.0011
3714.00,0.0011
3713.00,0.0012
3712.00,0.0012
3711.00,0.0012
3710.00,0.0013
3709.00,0.0013
3708.00,0.0013
3707.00,0.0012
3706.00,0.0012
3705.00,0.0012
3704.00,0.0012
3703.00,0.0012
3702.00,0.0012
3701.00,0.0012
3700.00,0.0012
3699.00,0.0012
3698.00,0.0012
3697.00,0.0012
3696.00,0.0012
3695.00,0.0012
3694.00,0.0012
3693.00,0.0012
3692.00,0.0011
3691.00,0.0011
3690.00,0.0011
3689.00,0.0011
3688.00,0.0012
3687.00,0.0011
3686.00,0.0011
3685.00,0.0011
3684.00,0.0012
3683.00,0.0012
3682.00,0.0011
3681.00,0.0011
3680.00,0.0011
3679.00,0.0011
3678.00,0.0011
3677.00,0.0011
3676.00,0.0011
3675.00,0.0011
3674.00,0.0011
3673.00,0.0011
3672.00,0.0011
3671.00,0.0010
3670.00,0.0010
3669.00,0.0010
3668.00,0.0010
3667.00,0.0010
3666.00,0.0010
3665.00,0.0010
3664.00,0.0010
3663.00,0.0010
3662.00,0.0010
3661.00,0.0010
3660.00,0.0009
3659.00,0.0009
3658.00,0.0009
3657.00,0.0009
3656.00,0.0009
3655.00,0.0009
3654.00,0.0010
3653.00,0.0010
3652.00,0.0010
3651.00,0.0010
3650.00,0.0010
3649.00,0.0010
3648.00,0.0010
3647.00,0.0010
3646.00,0.0010
3645.00,0.0010
3644.00,0.0010
3643.00,0.0010
3642.00,0.0010
3641.00,0.0010
3640.00,0.0010
3639.00,0.0010
3638.00,0.0010
3637.00,0.0010
3636.00,0.0010
3635.00,0.0011
3634.00,0.0011
3633.00,0.0011
3632.00,0.0011
3631.00,0.0011
3630.00,0.0011
3629.00,0.0011
3628.00,0.0012
3627.00,0.0013
3626.00,0.0013
3625.00,0.0013
3624.00,0.0013
3623.00,0.0013
3622.00,0.0013
3621.00,0.0012
3620.00,0.0012
3619.00,0.0012
3618.00,0.0013
3617.00,0.0013
3616.00,0.0013
3615.00,0.0012
3614.00,0.0012
3613.00,0.0012
3612.00,0.0012
3611.00,0.0012
3610.00,0.0013
3609.00,0.0013
3608.00,0.0012
3607.00,0.0013
3606.00,0.0013
3605.00,0.0013
3604.00,0.0013
3603.00,0.0013
3602.00,0.0013
3601.00,0.0013
3600.00,0.0013
3599.00,0.0013
3598.00,0.0013
3597.00,0.0013
3596.00,0.0012
3595.00,0.0012
3594.00,0.0012
3593.00,0.0012
3592.00,0.0012
3591.00,0.0012
3590.00,0.0012
3589.00,0.0013
3588.00,0.0013
3587.00,0.0013
3586.00,0.0013
3585.00,0.0013
3584.00,0.0013
3583.00,0.0013
3582.00,0.0013
3581.00,0.0012
3580.00,0.0012
3579.00,0.0012
3578.00,0.0012
3577.00,0.0012
3576.00,0.0012
3575.00,0.0012
3574.00,0.0012
3573.00,0.0012
3572.00,0.0012
3571.00,0.0012
3570.00,0.0013
3569.00,0.0013
3568.00,0.0013
3567.00,0.0014
3566.00,0.0014
3565.00,0.0013
3564.00,0.0013
3563.00,0.0013
3562.00,0.0012
3561.00,0.0012
3560.00,0.0012
3559.00,0.0012
3558.00,0.0012
3557.00,0.0012
3556.00,0.0012
3555.00,0.0013
3554.00,0.0013
3553.00,0.0013
3552.00,0.0013
3551.00,0.0013
3550.00,0.0013
3549.00,0.0013
3548.00,0.0013
3547.00,0.0014
3546.00,0.0014
3545.00,0.0014
3544.00,0.0014
3543.00,0.0014
3542.00,0.0014
3541.00,0.0014
3540.00,0.0013
3539.00,0.0013
3538.00,0.0013
3537.00,0.0014
3536.00,0.0014
3535.00,0.0014
3534.00,0.0014
3533.00,0.0014
3532.00,0.0013
3531.00,0.0013
3530.00,0.0013
3529.00,0.0014
3528.00,0.0014
3527.00,0.0014
3526.00,0.0014
3525.00,0.0014
3524.00,0.0014
3523.00,0.0014
3522.00,0.0015
3521.00,0.0014
3520.00,0.0014
3519.00,0.0014
3518.00,0.0014
3517.00,0.0014
3516.00,0.0014
3515.00,0.0014
3514.00,0.0014
3513.00,0.0014
3512.00,0.0014
3511.00,0.0014
3510.00,0.0014
3509.00,0.0014
3508.00,0.0014
3507.00,0.0014
3506.00,0.0015
3505.00,0.0015
3504.00,0.0015
3503.00,0.0015
3502.00,0.0015
3501.00,0.0015
3500.00,0.0015
3499.00,0.0015
3498.00,0.0015
3497.00,0.0015
3496.00,0.0015
3495.00,0.0015
3494.00,0.0015
3493.00,0.0015
3492.00,0.0015
3491.00,0.0015
3490.00,0.0015
3489.00,0.0015
3488.00,0.0015
3487.00,0.0015
3486.00,0.0015
3485.00,0.0015
3484.00,0.0015
3483.00,0.0015
3482.00,0.0015
3481.00,0.0015
3480.00,0.0015
3479.00,0.0015
3478.00,0.0015
3477.00,0.0015
3476.00,0.0015
3475.00,0.0015
3474.00,0.0015
3473.00,0.0015
3472.00,0.0015
3471.00,0.0016
3470.00,0.0016
3469.00,0.0016
3468.00,0.0016
3467.00,0.0016
3466.00,0.0016
3465.00,0.0016
3464.00,0.0016
3463.00,0.0016
3462.00,0.0016
3461.00,0.0016
3460.00,0.0015
3459.00,0.0016
3458.00,0.0016
3457.00,0.0015
3456.00,0.0015
3455.00,0.0015
3454.00,0.0015
3453.00,0.0015
3452.00,0.0016
3451.00,0.0016
3450.00,0.0016
3449.00,0.0016
3448.00,0.0016
3447.00,0.0016
3446.00,0.0016
3445.00,0.0015
3444.00,0.0015
3443.00,0.0016
3442.00,0.0016
3441.00,0.0016
3440.00,0.0016
3439.00,0.0016
3438.00,0.0016
3437.00,0.0016
3436.00,0.0016
3435.00,0.0016
3434.00,0.0017
3433.00,0.0017
3432.00,0.0017
3431.00,0.0016
3430.00,0.0016
3429.00,0.0016
3428.00,0.0016
3427.00,0.0016
3426.00,0.0016
3425.00,0.0016
3424.00,0.0016
3423.00,0.0016
3422.00,0.0016
3421.00,0.0016
3420.00,0.0016
3419.00,0.0016
3418.00,0.0016
3417.00,0.0016
3416.00,0.0016
3415.00,0.0016
3414.00,0.0016
3413.00,0.0016
3412.00,0.0016
3411.00,0.0016
3410.00,0.0016
3409.00,0.0016
3408.00,0.0016
3407.00,0.0016
3406.00,0.0016
3405.00,0.0016
3404.00,0.0016
3403.00,0.0016
3402.00,0.0016
3401.00,0.0016
3400.00,0.0017
3399.00,0.0017
3398.00,0.0017
3397.00,0.0017
3396.00,0.0016
3395.00,0.0016
3394.00,0.0016
3393.00,0.0016
3392.00,0.0016
3391.00,0.0016
3390.00,0.0016
3389.00,0.0016
3388.00,0.0016
3387.00,0.0016
3386.00,0.0016
3385.00,0.0016
3384.00,0.0016
3383.00,0.0016
3382.00,0.0016
3381.00,0.0016
3380.00,0.0017
3379.00,0.0017
3378.00,0.0017
3377.00,0.0017
3376.00,0.0017
3375.00,0.0017
3374.00,0.0017
3373.00,0.0017
3372.00,0.0017
3371.00,0.0017
3370.00,0.0017
3369.00,0.0017
3368.00,0.0017
3367.00,0.0017
3366.00,0.0017
3365.00,0.0016
3364.00,0.0016
3363.00,0.0016
3362.00,0.0016
3361.00,0.0016
3360.00,0.0016
3359.00,0.0016
3358.00,0.0016
3357.00,0.0016
3356.00,0.0016
3355.00,0.0016
3354.00,0.0016
3353.00,0.0016
3352.00,0.0017
3351.00,0.0017
3350.00,0.0017
3349.00,0.0016
3348.00,0.0016
3347.00,0.0016
3346.00,0.0016
3345.00,0.0016
3344.00,0.0016
3343.00,0.0016
3342.00,0.0016
3341.00,0.0017
3340.00,0.0017
3339.00,0.0016
3338.00,0.0016
3337.00,0.0016
3336.00,0.0016
3335.00,0.0017
3334.00,0.0017
3333.00,0.0017
3332.00,0.0017
3331.00,0.0016
3330.00,0.0016
3329.00,0.0016
3328.00,0.0016
3327.00,0.0017
3326.00,0.0017
3325.00,0.0017
3324.00,0.0016
3323.00,0.0016
3322.00,0.0016
3321.00,0.0015
3320.00,0.0015
3319.00,0.0015
3318.00,0.0016
3317.00,0.0016
3316.00,0.0016
3315.00,0.0016
3314.00,0.0016
3313.00,0.0016
3312.00,0.0016
3311.00,0.0016
3310.00,0.0016
3309.00,0.0017
3308.00,0.0017
3307.00,0.0017
3306.00,0.0017
3305.00,0.0017
3304.00,0.0016
3303.00,0.0016
3302.00,0.0016
3301.00,0.0016
3300.00,0.0016
3299.00,0.0016
3298.00,0.0016
3297.00,0.0017
3296.00,0.0017
3295.00,0.0017
3294.00,0.0017
3293.00,0.0017
3292.00,0.0017
3291.00,0.0017
3290.00,0.0016
3289.00,0.0016
3288.00,0.0016
3287.00,0.0016
3286.00,0.0016
3285.00,0.0016
3284.00,0.0016
3283.00,0.0016
3282.00,0.0016
3281.00,0.0016
3280.00,0.0016
3279.00,0.0016
3278.00,0.0016
3277.00,0.0016
3276.00,0.0016
3275.00,0.0016
3274.00,0.0016
3273.00,0.0016
3272.00,0.0016
3271.00,0.0016
3270.00,0.0015
3269.00,0.0015
3268.00,0.0015
3267.00,0.0016
3266.00,0.0016
3265.00,0.0016
3264.00,0.0016
3263.00,0.0016
3262.00,0.0016
3261.00,0.0016
3260.00,0.0016
3259.00,0.0016
3258.00,0.0016
3257.00,0.0016
3256.00,0.0016
3255.00,0.0016
3254.00,0.0016
3253.00,0.0016
3252.00,0.0015
3251.00,0.0015
3250.00,0.0015
3249.00,0.0015
3248.00,0.0015
3247.00,0.0016
3246.00,0.0016
3245.00,0.0016
3244.00,0.0016
3243.00,0.0015
3242.00,0.0015
3241.00,0.0015
3240.00,0.0015
3239.00,0.0015
3238.00,0.0015
3237.00,0.0015
3236.00,0.0015
3235.00,0.0016
3234.00,0.0015
3233.00,0.0015
3232.00,0.0015
3231.00,0.0015
3230.00,0.0015
3229.00,0.0015
3228.00,0.0015
3227.00,0.0015
3226.00,0.0015
3225.00,0.0015
3224.00,0.0015
3223.00,0.0015
3222.00,0.0015
3221.00,0.0015
3220.00,0.0015
3219.00,0.0015
3218.00,0.0015
3217.00,0.0015
3216.00,0.0015
3215.00,0.0015
3214.00,0.0015
3213.00,0.0015
3212.00,0.0015
3211.00,0.0015
3210.00,0.0015
3209.00,0.0015
3208.00,0.0015
3207.00,0.0015
3206.00,0.0015
3205.00,0.0015
3204.00,0.0016
3203.00,0.0016
3202.00,0.0016
3201.00,0.0015
3200.00,0.0015
3199.00,0.0015
3198.00,0.0015
3197.00,0.0015
3196.00,0.0015
3195.00,0.0015
3194.00,0.0015
3193.00,0.0015
3192.00,0.0015
3191.00,0.0015
3190.00,0.0015
3189.00,0.0015
3188.00,0.0015
3187.00,0.0015
3186.00,0.0015
3185.00,0.0015
3184.00,0.0015
3183.00,0.0015
3182.00,0.0015
3181.00,0.0015
3180.00,0.0015
3179.00,0.0015
3178.00,0.0015
3177.00,0.0015
3176.00,0.0015
3175.00,0.0015
3174.00,0.0015
3173.00,0.0015
3172.00,0.0015
3171.00,0.0015
3170.00,0.0015
3169.00,0.0015
3168.00,0.0015
3167.00,0.0016
3166.00,0.0016
3165.00,0.0016
3164.00,0.0016
3163.00,0.0017
3162.00,0.0017
3161.00,0.0017
3160.00,0.0017
3159.00,0.0017
3158.00,0.0017
3157.00,0.0016
3156.00,0.0016
3155.00,0.0016
3154.00,0.0016
3153.00,0.0015
3152.00,0.0015
3151.00,0.0015
3150.00,0.0015
3149.00,0.0015
3148.00,0.0015
3147.00,0.0015
3146.00,0.0015
3145.00,0.0015
3144.00,0.0015
3143.00,0.0015
3142.00,0.0015
3141.00,0.0015
3140.00,0.0015
3139.00,0.0015
3138.00,0.0015
3137.00,0.0015
3136.00,0.0015
3135.00,0.0015
3134.00,0.0015
3133.00,0.0015
3132.00,0.0015
3131.00,0.0015
3130.00,0.0016
3129.00,0.0016
3128.00,0.0016
3127.00,0.0016
3126.00,0.0016
3125.00,0.0016
3124.00,0.0017
3123.00,0.0017
3122.00,0.0017
3121.00,0.0017
3120.00,0.0018
3119.00,0.0018
3118.00,0.0018
3117.00,0.0019
3116.00,0.0019
3115.00,0.0020
3114.00,0.0021
3113.00,0.0022
3112.00,0.0024
3111.00,0.0025
3110.00,0.0027
3109.00,0.0029
3108.00,0.0030
3107.00,0.0032
3106.00,0.0034
3105.00,0.0035
3104.00,0.0036
3103.00,0.0036
3102.00,0.0036
3101.00,0.0036
3100.00,0.0035
3099.00,0.0034
3098.00,0.0034
3097.00,0.0033
3096.00,0.0034
3095.00,0.0035
3094.00,0.0036
3093.00,0.0038
3092.00,0.0040
3091.00,0.0043
3090.00,0.0047
3089.00,0.0052
3088.00,0.0058
3087.00,0.0064
3086.00,0.0070
3085.00,0.0076
3084.00,0.0081
3083.00,0.0084
3082.00,0.0085
3081.00,0.0084
3080.00,0.0081
3079.00,0.0077
3078.00,0.0073
3077.00,0.0069
3076.00,0.0066
3075.00,0.0064
3074.00,0.0063
3073.00,0.0062
3072.00,0.0063
3071.00,0.0064
3070.00,0.0067
3069.00,0.0070
3068.00,0.0074
3067.00,0.0079
3066.00,0.0085
3065.00,0.0091
3064.00,0.0098
3063.00,0.0104
3062.00,0.0109
3061.00,0.0113
3060.00,0.0115
3059.00,0.0115
3058.00,0.0112
3057.00,0.0108
3056.00,0.0102
3055.00,0.0096
3054.00,0.0090
3053.00,0.0084
3052.00,0.0078
3051.00,0.0073
3050.00,0.0069
3049.00,0.0066
3048.00,0.0063
3047.00,0.0061
3046.00,0.0060
3045.00,0.0060
3044.00,0.0060
3043.00,0.0062
3042.00,0.0063
3041.00,0.0066
3040.00,0.0069
3039.00,0.0073
3038.00,0.0078
3037.00,0.0085
3036.00,0.0092
3035.00,0.0101
3034.00,0.0112
3033.00,0.0125
3032.00,0.0139
3031.00,0.0154
3030.00,0.0170
3029.00,0.0185
3028.00,0.0200
3027.00,0.0211
3026.00,0.0218
3025.00,0.0219
3024.00,0.0215
3023.00,0.0205
3022.00,0.0191
3021.00,0.0174
3020.00,0.0155
3019.00,0.0136
3018.00,0.0119
3017.00,0.0104
3016.00,0.0092
3015.00,0.0081
3014.00,0.0073
3013.00,0.0066
3012.00,0.0061
3011.00,0.0057
3010.00,0.0054
3009.00,0.0052
3008.00,0.0051
3007.00,0.0051
3006.00,0.0052
3005.00,0.0053
3004.00,0.0054
3003.00,0.0055
3002.00,0.0055
3001.00,0.0055
3000.00,0.0053
2999.00,0.0050
2998.00,0.0046
2997.00,0.0042
2996.00,0.0037
2995.00,0.0033
2994.00,0.0030
2993.00,0.0026
2992.00,0.0024
2991.00,0.0022
2990.00,0.0020
2989.00,0.0019
2988.00,0.0019
2987.00,0.0018
2986.00,0.0017
2985.00,0.0015
2984.00,0.0013
2983.00,0.0010
2982.00,0.0009
2981.00,0.0008
2980.00,0.0009
2979.00,0.0011
2978.00,0.0012
2977.00,0.0014
2976.00,0.0016
2975.00,0.0017
2974.00,0.0017
2973.00,0.0018
2972.00,0.0018
2971.00,0.0019
2970.00,0.0020
2969.00,0.0022
2968.00,0.0025
2967.00,0.0027
2966.00,0.0029
2965.00,0.0030
2964.00,0.0032
2963.00,0.0035
2962.00,0.0037
2961.00,0.0039
2960.00,0.0042
2959.00,0.0044
2958.00,0.0046
2957.00,0.0049
2956.00,0.0052
2955.00,0.0055
2954.00,0.0058
2953.00,0.0061
2952.00,0.0065
2951.00,0.0069
2950.00,0.0073
2949.00,0.0077
2948.00,0.0082
2947.00,0.0087
2946.00,0.0092
2945.00,0.0098
2944.00,0.0105
2943.00,0.0111
2942.00,0.0118
2941.00,0.0125
2940.00,0.0133
2939.00,0.0141
2938.00,0.0150
2937.00,0.0159
2936.00,0.0169
2935.00,0.0178
2934.00,0.0188
2933.00,0.0198
2932.00,0.0208
2931.00,0.0218
2930.00,0.0227
2929.00,0.0236
2928.00,0.0244
2927.00,0.0251
2926.00,0.0257
2925.00,0.0261
2924.00,0.0265
2923.00,0.0267
2922.00,0.0268
2921.00,0.0268
2920.00,0.0266
2919.00,0.0264
2918.00,0.0260
2917.00,0.0256
2916.00,0.0251
2915.00,0.0246
2914.00,0.0240
2913.00,0.0234
2912.00,0.0227
2911.00,0.0220
2910.00,0.0213
2909.00,0.0205
2908.00,0.0198
2907.00,0.0192
2906.00,0.0185
2905.00,0.0178
2904.00,0.0171
2903.00,0.0164
2902.00,0.0157
2901.00,0.0150
2900.00,0.0143
2899.00,0.0136
2898.00,0.0130
2897.00,0.0124
2896.00,0.0119
2895.00,0.0114
2894.00,0.0109
2893.00,0.0105
2892.00,0.0101
2891.00,0.0098
2890.00,0.0095
2889.00,0.0092
2888.00,0.0089
2887.00,0.0087
2886.00,0.0085
2885.00,0.0082
2884.00,0.0080
2883.00,0.0078
2882.00,0.0077
2881.00,0.0075
2880.00,0.0074
2879.00,0.0072
2878.00,0.0071
2877.00,0.0070
2876.00,0.0068
2875.00,0.0067
2874.00,0.0066
2873.00,0.0065
2872.00,0.0064
2871.00,0.0064
2870.00,0.0064
2869.00,0.0064
2868.00,0.0064
2867.00,0.0065
2866.00,0.0066
2865.00,0.0068
2864.00,0.0071
2863.00,0.0073
2862.00,0.0076
2861.00,0.0080
2860.00,0.0084
2859.00,0.0088
2858.00,0.0093
2857.00,0.0097
2856.00,0.0102
2855.00,0.0106
2854.00,0.0110
2853.00,0.0114
2852.00,0.0116
2851.00,0.0118
2850.00,0.0119
2849.00,0.0119
2848.00,0.0118
2847.00,0.0115
2846.00,0.0112
2845.00,0.0107
2844.00,0.0102
2843.00,0.0095
2842.00,0.0089
2841.00,0.0082
2840.00,0.0075
2839.00,0.0069
2838.00,0.0063
2837.00,0.0057
2836.00,0.0052
2835.00,0.0047
2834.00,0.0043
2833.00,0.0040
2832.00,0.0038
2831.00,0.0036
2830.00,0.0034
2829.00,0.0033
2828.00,0.0032
2827.00,0.0031
2826.00,0.0030
2825.00,0.0029
2824.00,0.0029
2823.00,0.0028
2822.00,0.0027
2821.00,0.0027
2820.00,0.0026
2819.00,0.0026
2818.00,0.0026
2817.00,0.0025
2816.00,0.0025
2815.00,0.0025
2814.00,0.0025
2813.00,0.0025
2812.00,0.0025
2811.00,0.0025
2810.00,0.0025
2809.00,0.0025
2808.00,0.0024
2807.00,0.0024
2806.00,0.0024
2805.00,0.0024
2804.00,0.0024
2803.00,0.0023
2802.00,0.0023
2801.00,0.0023
2800.00,0.0023
2799.00,0.0023
2798.00,0.0023
2797.00,0.0022
2796.00,0.0022
2795.00,0.0022
2794.00,0.0022
2793.00,0.0021
2792.00,0.0021
2791.00,0.0021
2790.00,0.0021
2789.00,0.0021
2788.00,0.0021
2787.00,0.0021
2786.00,0.0021
2785.00,0.0021
2784.00,0.0021
2783.00,0.0020
2782.00,0.0020
2781.00,0.0020
2780.00,0.0020
2779.00,0.0020
2778.00,0.0020
2777.00,0.0020
2776.00,0.0020
2775.00,0.0020
2774.00,0.0020
2773.00,0.0020
2772.00,0.0020
2771.00,0.0019
2770.00,0.0019
2769.00,0.0019
2768.00,0.0019
2767.00,0.0019
2766.00,0.0019
2765.00,0.0019
2764.00,0.0019
2763.00,0.0018
2762.00,0.0018
2761.00,0.0019
2760.00,0.0019
2759.00,0.0018
2758.00,0.0018
2757.00,0.0018
2756.00,0.0018
2755.00,0.0018
2754.00,0.0018
2753.00,0.0018
2752.00,0.0018
2751.00,0.0018
2750.00,0.0019
2749.00,0.0019
2748.00,0.0019
2747.00,0.0019
2746.00,0.0018
2745.00,0.0018
2744.00,0.0018
2743.00,0.0018
2742.00,0.0018
2741.00,0.0018
2740.00,0.0018
2739.00,0.0018
2738.00,0.0018
2737.00,0.0018
2736.00,0.0018
2735.00,0.0018
2734.00,0.0018
2733.00,0.0018
2732.00,0.0019
2731.00,0.0019
2730.00,0.0019
2729.00,0.0019
2728.00,0.0019
2727.00,0.0019
2726.00,0.0019
2725.00,0.0019
2724.00,0.0019
2723.00,0.0019
2722.00,0.0019
2721.00,0.0019
2720.00,0.0019
2719.00,0.0019
2718.00,0.0019
2717.00,0.0019
2716.00,0.0019
2715.00,0.0019
2714.00,0.0018
2713.00,0.0018
2712.00,0.0018
2711.00,0.0018
2710.00,0.0018
2709.00,0.0018
2708.00,0.0018
2707.00,0.0018
2706.00,0.0018
2705.00,0.0018
2704.00,0.0018
2703.00,0.0018
2702.00,0.0018
2701.00,0.0018
2700.00,0.0018
2699.00,0.0018
2698.00,0.0018
2697.00,0.0018
2696.00,0.0018
2695.00,0.0018
2694.00,0.0018
2693.00,0.0018
2692.00,0.0018
2691.00,0.0018
2690.00,0.0018
2689.00,0.0018
2688.00,0.0018
2687.00,0.0018
2686.00,0.0018
2685.00,0.0018
2684.00,0.0018
2683.00,0.0018
2682.00,0.0018
2681.00,0.0018
2680.00,0.0018
2679.00,0.0018
2678.00,0.0018
2677.00,0.0018
2676.00,0.0018
2675.00,0.0018
2674.00,0.0018
2673.00,0.0018
2672.00,0.0018
2671.00,0.0018
2670.00,0.0018
2669.00,0.0018
2668.00,0.0018
2667.00,0.0019
2666.00,0.0019
2665.00,0.0019
2664.00,0.0020
2663.00,0.0020
2662.00,0.0020
2661.00,0.0021
2660.00,0.0021
2659.00,0.0021
2658.00,0.0022
2657.00,0.0022
2656.00,0.0022
2655.00,0.0022
2654.00,0.0022
2653.00,0.0022
2652.00,0.0022
2651.00,0.0021
2650.00,0.0021
2649.00,0.0021
2648.00,0.0021
2647.00,0.0022
2646.00,0.0022
2645.00,0.0022
2644.00,0.0022
2643.00,0.0022
2642.00,0.0022
2641.00,0.0022
2640.00,0.0022
2639.00,0.0022
2638.00,0.0022
2637.00,0.0022
2636.00,0.0023
2635.00,0.0023
2634.00,0.0023
2633.00,0.0023
2632.00,0.0022
2631.00,0.0022
2630.00,0.0022
2629.00,0.0022
2628.00,0.0022
2627.00,0.0022
2626.00,0.0021
2625.00,0.0021
2624.00,0.0021
2623.00,0.0020
2622.00,0.0020
2621.00,0.0020
2620.00,0.0020
2619.00,0.0020
2618.00,0.0020
2617.00,0.0020
2616.00,0.0020
2615.00,0.0020
2614.00,0.0020
2613.00,0.0020
2612.00,0.0020
2611.00,0.0020
2610.00,0.0020
2609.00,0.0020
2608.00,0.0021
2607.00,0.0021
2606.00,0.0021
2605.00,0.0020
2604.00,0.0020
2603.00,0.0020
2602.00,0.0020
2601.00,0.0020
2600.00,0.0020
2599.00,0.0020
2598.00,0.0019
2597.00,0.0019
2596.00,0.0019
2595.00,0.0019
2594.00,0.0019
2593.00,0.0019
2592.00,0.0018
2591.00,0.0018
2590.00,0.0018
2589.00,0.0018
2588.00,0.0018
2587.00,0.0018
2586.00,0.0018
2585.00,0.0018
2584.00,0.0018
2583.00,0.0018
2582.00,0.0018
2581.00,0.0018
2580.00,0.0019
2579.00,0.0019
2578.00,0.0018
2577.00,0.0018
2576.00,0.0018
2575.00,0.0018
2574.00,0.0017
2573.00,0.0017
2572.00,0.0017
2571.00,0.0018
2570.00,0.0018
2569.00,0.0017
2568.00,0.0017
2567.00,0.0017
2566.00,0.0017
2565.00,0.0017
2564.00,0.0017
2563.00,0.0017
2562.00,0.0017
2561.00,0.0017
2560.00,0.0017
2559.00,0.0017
2558.00,0.0017
2557.00,0.0017
2556.00,0.0017
2555.00,0.0016
2554.00,0.0016
2553.00,0.0016
2552.00,0.0016
2551.00,0.0016
2550.00,0.0017
2549.00,0.0017
2548.00,0.0017
2547.00,0.0017
2546.00,0.0016
2545.00,0.0016
2544.00,0.0016
2543.00,0.0016
2542.00,0.0016
2541.00,0.0016
2540.00,0.0015
2539.00,0.0015
2538.00,0.0015
2537.00,0.0015
2536.00,0.0015
2535.00,0.0016
2534.00,0.0016
2533.00,0.0016
2532.00,0.0016
2531.00,0.0016
2530.00,0.0015
2529.00,0.0015
2528.00,0.0015
2527.00,0.0015
2526.00,0.0015
2525.00,0.0014
2524.00,0.0014
2523.00,0.0015
2522.00,0.0015
2521.00,0.0015
2520.00,0.0015
2519.00,0.0015
2518.00,0.0015
2517.00,0.0015
2516.00,0.0015
2515.00,0.0015
2514.00,0.0015
2513.00,0.0015
2512.00,0.0015
2511.00,0.0015
2510.00,0.0015
2509.00,0.0016
2508.00,0.0016
2507.00,0.0016
2506.00,0.0015
2505.00,0.0015
2504.00,0.0015
2503.00,0.0015
2502.00,0.0016
2501.00,0.0016
2500.00,0.0015
2499.00,0.0015
2498.00,0.0015
2497.00,0.0015
2496.00,0.0015
2495.00,0.0015
2494.00,0.0015
2493.00,0.0015
2492.00,0.0015
2491.00,0.0015
2490.00,0.0015
2489.00,0.0015
2488.00,0.0015
2487.00,0.0015
2486.00,0.0015
2485.00,0.0014
2484.00,0.0014
2483.00,0.0015
2482.00,0.0015
2481.00,0.0015
2480.00,0.0014
2479.00,0.0014
2478.00,0.0014
2477.00,0.0014
2476.00,0.0014
2475.00,0.0014
2474.00,0.0014
2473.00,0.0014
2472.00,0.0014
2471.00,0.0014
2470.00,0.0014
2469.00,0.0014
2468.00,0.0014
2467.00,0.0014
2466.00,0.0014
2465.00,0.0014
2464.00,0.0014
2463.00,0.0014
2462.00,0.0014
2461.00,0.0015
2460.00,0.0015
2459.00,0.0015
2458.00,0.0015
2457.00,0.0015
2456.00,0.0015
2455.00,0.0015
2454.00,0.0015
2453.00,0.0015
2452.00,0.0015
2451.00,0.0015
2450.00,0.0015
2449.00,0.0015
2448.00,0.0015
2447.00,0.0015
2446.00,0.0015
2445.00,0.0014
2444.00,0.0014
2443.00,0.0014
2442.00,0.0014
2441.00,0.0014
2440.00,0.0014
2439.00,0.0014
2438.00,0.0014
2437.00,0.0013
2436.00,0.0013
2435.00,0.0013
2434.00,0.0013
2433.00,0.0013
2432.00,0.0013
2431.00,0.0013
2430.00,0.0013
2429.00,0.0013
2428.00,0.0013
2427.00,0.0012
2426.00,0.0012
2425.00,0.0012
2424.00,0.0012
2423.00,0.0012
2422.00,0.0012
2421.00,0.0012
2420.00,0.0012
2419.00,0.0012
2418.00,0.0012
2417.00,0.0012
2416.00,0.0011
2415.00,0.0011
2414.00,0.0011
2413.00,0.0011
2412.00,0.0011
2411.00,0.0012
2410.00,0.0012
2409.00,0.0012
2408.00,0.0011
2407.00,0.0011
2406.00,0.0011
2405.00,0.0010
2404.00,0.0011
2403.00,0.0011
2402.00,0.0011
2401.00,0.0011
2400.00,0.0011
2399.00,0.0011
2398.00,0.0011
2397.00,0.0011
2396.00,0.0011
2395.00,0.0011
2394.00,0.0011
2393.00,0.0011
2392.00,0.0010
2391.00,0.0010
2390.00,0.0010
2389.00,0.0011
2388.00,0.0011
2387.00,0.0011
2386.00,0.0011
2385.00,0.0011
2384.00,0.0011
2383.00,0.0011
2382.00,0.0010
2381.00,0.0010
2380.00,0.0010
2379.00,0.0010
2378.00,0.0011
2377.00,0.0011
2376.00,0.0011
2375.00,0.0011
2374.00,0.0010
2373.00,0.0010
2372.00,0.0010
2371.00,0.0010
2370.00,0.0010
2369.00,0.0010
2368.00,0.0011
2367.00,0.0011
2366.00,0.0011
2365.00,0.0012
2364.00,0.0012
2363.00,0.0013
2362.00,0.0013
2361.00,0.0013
2360.00,0.0012
2359.00,0.0012
2358.00,0.0012
2357.00,0.0013
2356.00,0.0013
2355.00,0.0014
2354.00,0.0013
2353.00,0.0013
2352.00,0.0013
2351.00,0.0014
2350.00,0.0014
2349.00,0.0014
2348.00,0.0014
2347.00,0.0015
2346.00,0.0015
2345.00,0.0016
2344.00,0.0016
2343.00,0.0016
2342.00,0.0016
2341.00,0.0016
2340.00,0.0017
2339.00,0.0017
2338.00,0.0017
2337.00,0.0017
2336.00,0.0017
2335.00,0.0017
2334.00,0.0017
2333.00,0.0017
2332.00,0.0017
2331.00,0.0017
2330.00,0.0017
2329.00,0.0017
2328.00,0.0019
2327.00,0.0022
2326.00,0.0024
2325.00,0.0026
2324.00,0.0026
2323.00,0.0025
2322.00,0.0024
2321.00,0.0022
2320.00,0.0021
2319.00,0.0020
2318.00,0.0020
2317.00,0.0019
2316.00,0.0020
2315.00,0.0020
2314.00,0.0020
2313.00,0.0020
2312.00,0.0020
2311.00,0.0020
2310.00,0.0020
2309.00,0.0020
2308.00,0.0020
2307.00,0.0020
2306.00,0.0019
2305.00,0.0019
2304.00,0.0019
2303.00,0.0018
2302.00,0.0018
2301.00,0.0019
2300.00,0.0019
2299.00,0.0019
2298.00,0.0020
2297.00,0.0020
2296.00,0.0020
2295.00,0.0020
2294.00,0.0021
2293.00,0.0021
2292.00,0.0022
2291.00,0.0022
2290.00,0.0022
2289.00,0.0022
2288.00,0.0022
2287.00,0.0022
2286.00,0.0022
2285.00,0.0022
2284.00,0.0022
2283.00,0.0021
2282.00,0.0021
2281.00,0.0020
2280.00,0.0019
2279.00,0.0019
2278.00,0.0019
2277.00,0.0019
2276.00,0.0019
2275.00,0.0018
2274.00,0.0018
2273.00,0.0017
2272.00,0.0017
2271.00,0.0017
2270.00,0.0016
2269.00,0.0016
2268.00,0.0016
2267.00,0.0016
2266.00,0.0016
2265.00,0.0016
2264.00,0.0016
2263.00,0.0017
2262.00,0.0017
2261.00,0.0018
2260.00,0.0018
2259.00,0.0018
2258.00,0.0017
2257.00,0.0017
2256.00,0.0016
2255.00,0.0016
2254.00,0.0016
2253.00,0.0016
2252.00,0.0016
2251.00,0.0016
2250.00,0.0016
2249.00,0.0016
2248.00,0.0016
2247.00,0.0017
2246.00,0.0016
2245.00,0.0016
2244.00,0.0015
2243.00,0.0014
2242.00,0.0014
2241.00,0.0014
2240.00,0.0015
2239.00,0.0015
2238.00,0.0015
2237.00,0.0015
2236.00,0.0015
2235.00,0.0015
2234.00,0.0016
2233.00,0.0016
2232.00,0.0017
2231.00,0.0016
2230.00,0.0016
2229.00,0.0015
2228.00,0.0014
2227.00,0.0014
2226.00,0.0013
2225.00,0.0013
2224.00,0.0013
2223.00,0.0014
2222.00,0.0014
2221.00,0.0015
2220.00,0.0016
2219.00,0.0016
2218.00,0.0015
2217.00,0.0015
2216.00,0.0015
2215.00,0.0015
2214.00,0.0015
2213.00,0.0016
2212.00,0.0016
2211.00,0.0015
2210.00,0.0015
2209.00,0.0014
2208.00,0.0014
2207.00,0.0014
2206.00,0.0015
2205.00,0.0015
2204.00,0.0015
2203.00,0.0015
2202.00,0.0014
2201.00,0.0014
2200.00,0.0013
2199.00,0.0013
2198.00,0.0013
2197.00,0.0014
2196.00,0.0014
2195.00,0.0014
2194.00,0.0014
2193.00,0.0014
2192.00,0.0014
2191.00,0.0014
2190.00,0.0015
2189.00,0.0016
2188.00,0.0017
2187.00,0.0018
2186.00,0.0018
2185.00,0.0017
2184.00,0.0015
2183.00,0.0012
2182.00,0.0010
2181.00,0.0010
2180.00,0.0010
2179.00,0.0011
2178.00,0.0010
2177.00,0.0009
2176.00,0.0008
2175.00,0.0009
2174.00,0.0011
2173.00,0.0013
2172.00,0.0015
2171.00,0.0016
2170.00,0.0018
2169.00,0.0020
2168.00,0.0022
2167.00,0.0022
2166.00,0.0022
2165.00,0.0022
2164.00,0.0024
2163.00,0.0025
2162.00,0.0022
2161.00,0.0014
2160.00,0.0004
2159.00,-0.0006
2158.00,-0.0012
2157.00,-0.0013
2156.00,-0.0012
2155.00,-0.0010
2154.00,-0.0007
2153.00,-0.0004
2152.00,-0.0002
2151.00,-0.0001
2150.00,-0.0002
2149.00,-0.0003
2148.00,-0.0004
2147.00,-0.0005
2146.00,-0.0005
2145.00,-0.0004
2144.00,-0.0003
2143.00,-0.0002
2142.00,-0.0001
2141.00,-0.0002
2140.00,-0.0002
2139.00,-0.0002
2138.00,-0.0002
2137.00,-0.0003
2136.00,-0.0004
2135.00,-0.0005
2134.00,-0.0005
2133.00,-0.0005
2132.00,-0.0003
2131.00,-0.0002
2130.00,0.0000
2129.00,0.0001
2128.00,0.0002
2127.00,0.0003
2126.00,0.0004
2125.00,0.0005
2124.00,0.0006
2123.00,0.0006
2122.00,0.0006
2121.00,0.0006
2120.00,0.0006
2119.00,0.0007
2118.00,0.0008
2117.00,0.0010
2116.00,0.0011
2115.00,0.0011
2114.00,0.0011
2113.00,0.0011
2112.00,0.0011
2111.00,0.0010
2110.00,0.0010
2109.00,0.0010
2108.00,0.0009
2107.00,0.0009
2106.00,0.0009
2105.00,0.0009
2104.00,0.0009
2103.00,0.0009
2102.00,0.0010
2101.00,0.0011
2100.00,0.0011
2099.00,0.0010
2098.00,0.0009
2097.00,0.0008
2096.00,0.0006
2095.00,0.0006
2094.00,0.0006
2093.00,0.0006
2092.00,0.0007
2091.00,0.0008
2090.00,0.0009
2089.00,0.0009
2088.00,0.0010
2087.00,0.0010
2086.00,0.0011
2085.00,0.0011
2084.00,0.0011
2083.00,0.0011
2082.00,0.0011
2081.00,0.0011
2080.00,0.0012
2079.00,0.0013
2078.00,0.0013
2077.00,0.0012
2076.00,0.0011
2075.00,0.0010
2074.00,0.0009
2073.00,0.0009
2072.00,0.0010
2071.00,0.0010
2070.00,0.0010
2069.00,0.0010
2068.00,0.0009
2067.00,0.0009
2066.00,0.0009
2065.00,0.0010
2064.00,0.0010
2063.00,0.0011
2062.00,0.0010
2061.00,0.0010
2060.00,0.0010
2059.00,0.0009
2058.00,0.0009
2057.00,0.0008
2056.00,0.0007
2055.00,0.0007
2054.00,0.0008
2053.00,0.0012
2052.00,0.0015
2051.00,0.0016
2050.00,0.0014
2049.00,0.0010
2048.00,0.0008
2047.00,0.0007
2046.00,0.0008
2045.00,0.0010
2044.00,0.0012
2043.00,0.0012
2042.00,0.0010
2041.00,0.0010
2040.00,0.0010
2039.00,0.0011
2038.00,0.0013
2037.00,0.0013
2036.00,0.0012
2035.00,0.0011
2034.00,0.0010
2033.00,0.0009
2032.00,0.0009
2031.00,0.0008
2030.00,0.0007
2029.00,0.0005
2028.00,0.0004
2027.00,0.0003
2026.00,0.0003
2025.00,0.0004
2024.00,0.0005
2023.00,0.0005
2022.00,0.0005
2021.00,0.0004
2020.00,0.0004
2019.00,0.0004
2018.00,0.0005
2017.00,0.0005
2016.00,0.0006
2015.00,0.0006
2014.00,0.0006
2013.00,0.0007
2012.00,0.0007
2011.00,0.0008
2010.00,0.0008
2009.00,0.0007
2008.00,0.0005
2007.00,0.0002
2006.00,-0.0001
2005.00,-0.0001
2004.00,-0.0000
2003.00,0.0002
2002.00,0.0003
2001.00,0.0004
2000.00,0.0005
1999.00,0.0006
1998.00,0.0008
1997.00,0.0009
1996.00,0.0011
1995.00,0.0012
1994.00,0.0012
1993.00,0.0012
1992.00,0.0012
1991.00,0.0013
1990.00,0.0014
1989.00,0.0015
1988.00,0.0016
1987.00,0.0016
1986.00,0.0016
1985.00,0.0017
1984.00,0.0020
1983.00,0.0022
1982.00,0.0025
1981.00,0.0026
1980.00,0.0024
1979.00,0.0019
1978.00,0.0014
1977.00,0.0009
1976.00,0.0007
1975.00,0.0005
1974.00,0.0005
1973.00,0.0005
1972.00,0.0006
1971.00,0.0007
1970.00,0.0009
1969.00,0.0010
1968.00,0.0012
1967.00,0.0013
1966.00,0.0013
1965.00,0.0014
1964.00,0.0015
1963.00,0.0015
1962.00,0.0015
1961.00,0.0016
1960.00,0.0016
1959.00,0.0017
1958.00,0.0018
1957.00,0.0019
1956.00,0.0021
1955.00,0.0022
1954.00,0.0024
1953.00,0.0025
1952.00,0.0026
1951.00,0.0027
1950.00,0.0028
1949.00,0.0030
1948.00,0.0031
1947.00,0.0032
1946.00,0.0033
1945.00,0.0033
1944.00,0.0034
1943.00,0.0034
1942.00,0.0033
1941.00,0.0033
1940.00,0.0032
1939.00,0.0031
1938.00,0.0030
1937.00,0.0028
1936.00,0.0026
1935.00,0.0024
1934.00,0.0022
1933.00,0.0020
1932.00,0.0019
1931.00,0.0017
1930.00,0.0016
1929.00,0.0014
1928.00,0.0013
1927.00,0.0013
1926.00,0.0012
1925.00,0.0013
1924.00,0.0013
1923.00,0.0013
1922.00,0.0012
1921.00,0.0012
1920.00,0.0012
1919.00,0.0012
1918.00,0.0011
1917.00,0.0010
1916.00,0.0010
1915.00,0.0010
1914.00,0.0009
1913.00,0.0009
1912.00,0.0009
1911.00,0.0009
1910.00,0.0009
1909.00,0.0009
1908.00,0.0009
1907.00,0.0010
1906.00,0.0010
1905.00,0.0010
1904.00,0.0010
1903.00,0.0010
1902.00,0.0011
1901.00,0.0012
1900.00,0.0013
1899.00,0.0013
1898.00,0.0014
1897.00,0.0015
1896.00,0.0016
1895.00,0.0017
1894.00,0.0018
1893.00,0.0018
1892.00,0.0019
1891.00,0.0020
1890.00,0.0021
1889.00,0.0022
1888.00,0.0023
1887.00,0.0024
1886.00,0.0025
1885.00,0.0026
1884.00,0.0026
1883.00,0.0027
1882.00,0.0027
1881.00,0.0028
1880.00,0.0029
1879.00,0.0029
1878.00,0.0029
1877.00,0.0030
1876.00,0.0030
1875.00,0.0031
1874.00,0.0032
1873.00,0.0033
1872.00,0.0034
1871.00,0.0034
1870.00,0.0034
1869.00,0.0033
1868.00,0.0033
1867.00,0.0032
1866.00,0.0031
1865.00,0.0030
1864.00,0.0029
1863.00,0.0027
1862.00,0.0026
1861.00,0.0024
1860.00,0.0023
1859.00,0.0022
1858.00,0.0020
1857.00,0.0019
1856.00,0.0018
1855.00,0.0017
1854.00,0.0016
1853.00,0.0015
1852.00,0.0014
1851.00,0.0014
1850.00,0.0014
1849.00,0.0014
1848.00,0.0013
1847.00,0.0013
1846.00,0.0013
1845.00,0.0013
1844.00,0.0012
1843.00,0.0012
1842.00,0.0012
1841.00,0.0012
1840.00,0.0012
1839.00,0.0012
1838.00,0.0012
1837.00,0.0012
1836.00,0.0013
1835.00,0.0013
1834.00,0.0013
1833.00,0.0014
1832.00,0.0014
1831.00,0.0014
1830.00,0.0014
1829.00,0.0015
1828.00,0.0016
1827.00,0.0017
1826.00,0.0017
1825.00,0.0019
1824.00,0.0020
1823.00,0.0021
1822.00,0.0021
1821.00,0.0021
1820.00,0.0022
1819.00,0.0022
1818.00,0.0023
1817.00,0.0023
1816.00,0.0024
1815.00,0.0025
1814.00,0.0027
1813.00,0.0028
1812.00,0.0030
1811.00,0.0031
1810.00,0.0032
1809.00,0.0033
1808.00,0.0034
1807.00,0.0035
1806.00,0.0035
1805.00,0.0036
1804.00,0.0037
1803.00,0.0037
1802.00,0.0038
1801.00,0.0038
1800.00,0.0037
1799.00,0.0036
1798.00,0.0036
1797.00,0.0035
1796.00,0.0033
1795.00,0.0031
1794.00,0.0030
1793.00,0.0028
1792.00,0.0026
1791.00,0.0025
1790.00,0.0024
1789.00,0.0023
1788.00,0.0022
1787.00,0.0021
1786.00,0.0021
1785.00,0.0020
1784.00,0.0020
1783.00,0.0020
1782.00,0.0019
1781.00,0.0019
1780.00,0.0020
1779.00,0.0020
1778.00,0.0020
1777.00,0.0020
1776.00,0.0020
1775.00,0.0020
1774.00,0.0020
1773.00,0.0021
1772.00,0.0021
1771.00,0.0021
1770.00,0.0022
1769.00,0.0022
1768.00,0.0022
1767.00,0.0022
1766.00,0.0022
1765.00,0.0022
1764.00,0.0022
1763.00,0.0023
1762.00,0.0024
1761.00,0.0025
1760.00,0.0026
1759.00,0.0027
1758.00,0.0028
1757.00,0.0029
1756.00,0.0031
1755.00,0.0032
1754.00,0.0033
1753.00,0.0035
1752.00,0.0036
1751.00,0.0038
1750.00,0.0039
1749.00,0.0040
1748.00,0.0041
1747.00,0.0042
1746.00,0.0042
1745.00,0.0043
1744.00,0.0044
1743.00,0.0044
1742.00,0.0044
1741.00,0.0043
1740.00,0.0043
1739.00,0.0042
1738.00,0.0042
1737.00,0.0042
1736.00,0.0042
1735.00,0.0041
1734.00,0.0040
1733.00,0.0040
1732.00,0.0039
1731.00,0.0038
1730.00,0.0038
1729.00,0.0037
1728.00,0.0036
1727.00,0.0035
1726.00,0.0034
1725.00,0.0034
1724.00,0.0033
1723.00,0.0032
1722.00,0.0032
1721.00,0.0032
1720.00,0.0032
1719.00,0.0032
1718.00,0.0031
1717.00,0.0031
1716.00,0.0031
1715.00,0.0030
1714.00,0.0030
1713.00,0.0030
1712.00,0.0030
1711.00,0.0030
1710.00,0.0030
1709.00,0.0029
1708.00,0.0029
1707.00,0.0029
1706.00,0.0028
1705.00,0.0028
1704.00,0.0028
1703.00,0.0028
1702.00,0.0028
1701.00,0.0028
1700.00,0.0028
1699.00,0.0028
1698.00,0.0028
1697.00,0.0027
1696.00,0.0027
1695.00,0.0027
1694.00,0.0027
1693.00,0.0026
1692.00,0.0027
1691.00,0.0027
1690.00,0.0027
1689.00,0.0027
1688.00,0.0027
1687.00,0.0028
1686.00,0.0028
1685.00,0.0028
1684.00,0.0029
1683.00,0.0030
1682.00,0.0030
1681.00,0.0030
1680.00,0.0030
1679.00,0.0030
1678.00,0.0030
1677.00,0.0031
1676.00,0.0031
1675.00,0.0031
1674.00,0.0031
1673.00,0.0031
1672.00,0.0032
1671.00,0.0032
1670.00,0.0032
1669.00,0.0033
1668.00,0.0033
1667.00,0.0033
1666.00,0.0032
1665.00,0.0032
1664.00,0.0032
1663.00,0.0032
1662.00,0.0031
1661.00,0.0031
1660.00,0.0031
1659.00,0.0030
1658.00,0.0030
1657.00,0.0029
1656.00,0.0029
1655.00,0.0029
1654.00,0.0028
1653.00,0.0027
1652.00,0.0027
1651.00,0.0027
1650.00,0.0027
1649.00,0.0027
1648.00,0.0026
1647.00,0.0026
1646.00,0.0026
1645.00,0.0025
1644.00,0.0025
1643.00,0.0025
1642.00,0.0025
1641.00,0.0025
1640.00,0.0025
1639.00,0.0025
1638.00,0.0025
1637.00,0.0025
1636.00,0.0025
1635.00,0.0025
1634.00,0.0026
1633.00,0.0026
1632.00,0.0026
1631.00,0.0026
1630.00,0.0026
1629.00,0.0026
1628.00,0.0027
1627.00,0.0027
1626.00,0.0027
1625.00,0.0028
1624.00,0.0028
1623.00,0.0028
1622.00,0.0029
1621.00,0.0029
1620.00,0.0030
1619.00,0.0030
1618.00,0.0031
1617.00,0.0031
1616.00,0.0033
1615.00,0.0036
1614.00,0.0039
1613.00,0.0042
1612.00,0.0046
1611.00,0.0052
1610.00,0.0061
1609.00,0.0072
1608.00,0.0087
1607.00,0.0106
1606.00,0.0128
1605.00,0.0153
1604.00,0.0179
1603.00,0.0202
1602.00,0.0217
1601.00,0.0223
1600.00,0.0217
1599.00,0.0201
1598.00,0.0179
1597.00,0.0155
1596.00,0.0133
1595.00,0.0114
1594.00,0.0100
1593.00,0.0088
1592.00,0.0080
1591.00,0.0073
1590.00,0.0069
1589.00,0.0066
1588.00,0.0067
1587.00,0.0071
1586.00,0.0078
1585.00,0.0085
1584.00,0.0091
1583.00,0.0093
1582.00,0.0089
1581.00,0.0080
1580.00,0.0070
1579.00,0.0060
1578.00,0.0052
1577.00,0.0044
1576.00,0.0039
1575.00,0.0035
1574.00,0.0033
1573.00,0.0032
1572.00,0.0030
1571.00,0.0029
1570.00,0.0028
1569.00,0.0027
1568.00,0.0027
1567.00,0.0026
1566.00,0.0026
1565.00,0.0025
1564.00,0.0025
1563.00,0.0025
1562.00,0.0024
1561.00,0.0024
1560.00,0.0024
1559.00,0.0025
1558.00,0.0026
1557.00,0.0026
1556.00,0.0027
1555.00,0.0028
1554.00,0.0029
1553.00,0.0030
1552.00,0.0032
1551.00,0.0033
1550.00,0.0034
1549.00,0.0035
1548.00,0.0036
1547.00,0.0037
1546.00,0.0037
1545.00,0.0037
1544.00,0.0038
1543.00,0.0037
1542.00,0.0037
1541.00,0.0035
1540.00,0.0035
1539.00,0.0035
1538.00,0.0035
1537.00,0.0034
1536.00,0.0034
1535.00,0.0034
1534.00,0.0033
1533.00,0.0032
1532.00,0.0031
1531.00,0.0030
1530.00,0.0030
1529.00,0.0029
1528.00,0.0029
1527.00,0.0029
1526.00,0.0028
1525.00,0.0028
1524.00,0.0027
1523.00,0.0027
1522.00,0.0026
1521.00,0.0027
1520.00,0.0027
1519.00,0.0028
1518.00,0.0029
1517.00,0.0029
1516.00,0.0030
1515.00,0.0031
1514.00,0.0031
1513.00,0.0032
1512.00,0.0033
1511.00,0.0034
1510.00,0.0035
1509.00,0.0036
1508.00,0.0037
1507.00,0.0039
1506.00,0.0042
1505.00,0.0046
1504.00,0.0051
1503.00,0.0057
1502.00,0.0065
1501.00,0.0077
1500.00,0.0095
1499.00,0.0122
1498.00,0.0166
1497.00,0.0235
1496.00,0.0327
1495.00,0.0423
1494.00,0.0503
1493.00,0.0550
1492.00,0.0554
1491.00,0.0507
1490.00,0.0424
1489.00,0.0335
1488.00,0.0263
1487.00,0.0211
1486.00,0.0173
1485.00,0.0145
1484.00,0.0123
1483.00,0.0106
1482.00,0.0092
1481.00,0.0081
1480.00,0.0073
1479.00,0.0068
1478.00,0.0064
1477.00,0.0061
1476.00,0.0059
1475.00,0.0058
1474.00,0.0056
1473.00,0.0056
1472.00,0.0056
1471.00,0.0056
1470.00,0.0057
1469.00,0.0058
1468.00,0.0060
1467.00,0.0061
1466.00,0.0063
1465.00,0.0066
1464.00,0.0069
1463.00,0.0074
1462.00,0.0080
1461.00,0.0088
1460.00,0.0100
1459.00,0.0120
1458.00,0.0158
1457.00,0.0227
1456.00,0.0316
1455.00,0.0403
1454.00,0.0478
1453.00,0.0536
1452.00,0.0564
1451.00,0.0560
1450.00,0.0529
1449.00,0.0486
1448.00,0.0440
1447.00,0.0399
1446.00,0.0365
1445.00,0.0337
1444.00,0.0310
1443.00,0.0284
1442.00,0.0260
1441.00,0.0239
1440.00,0.0221
1439.00,0.0204
1438.00,0.0187
1437.00,0.0168
1436.00,0.0149
1435.00,0.0132
1434.00,0.0119
1433.00,0.0109
1432.00,0.0099
1431.00,0.0089
1430.00,0.0081
1429.00,0.0075
1428.00,0.0069
1427.00,0.0065
1426.00,0.0062
1425.00,0.0059
1424.00,0.0057
1423.00,0.0055
1422.00,0.0053
1421.00,0.0052
1420.00,0.0051
1419.00,0.0050
1418.00,0.0049
1417.00,0.0048
1416.00,0.0047
1415.00,0.0045
1414.00,0.0045
1413.00,0.0044
1412.00,0.0044
1411.00,0.0043
1410.00,0.0043
1409.00,0.0043
1408.00,0.0043
1407.00,0.0042
1406.00,0.0042
1405.00,0.0042
1404.00,0.0041
1403.00,0.0041
1402.00,0.0041
1401.00,0.0041
1400.00,0.0041
1399.00,0.0041
1398.00,0.0042
1397.00,0.0042
1396.00,0.0043
1395.00,0.0044
1394.00,0.0046
1393.00,0.0048
1392.00,0.0051
1391.00,0.0054
1390.00,0.0057
1389.00,0.0061
1388.00,0.0065
1387.00,0.0070
1386.00,0.0074
1385.00,0.0077
1384.00,0.0081
1383.00,0.0084
1382.00,0.0088
1381.00,0.0091
1380.00,0.0095
1379.00,0.0099
1378.00,0.0103
1377.00,0.0107
1376.00,0.0110
1375.00,0.0113
1374.00,0.0115
1373.00,0.0117
1372.00,0.0117
1371.00,0.0118
1370.00,0.0118
1369.00,0.0117
1368.00,0.0117
1367.00,0.0116
1366.00,0.0115
1365.00,0.0115
1364.00,0.0115
1363.00,0.0114
1362.00,0.0113
1361.00,0.0111
1360.00,0.0110
1359.00,0.0108
1358.00,0.0107
1357.00,0.0105
1356.00,0.0104
1355.00,0.0104
1354.00,0.0103
1353.00,0.0103
1352.00,0.0103
1351.00,0.0103
1350.00,0.0103
1349.00,0.0103
1348.00,0.0102
1347.00,0.0100
1346.00,0.0099
1345.00,0.0097
1344.00,0.0095
1343.00,0.0093
1342.00,0.0091
1341.00,0.0089
1340.00,0.0088
1339.00,0.0087
1338.00,0.0087
1337.00,0.0087
1336.00,0.0088
1335.00,0.0089
1334.00,0.0091
1333.00,0.0094
1332.00,0.0096
1331.00,0.0099
1330.00,0.0101
1329.00,0.0102
1328.00,0.0103
1327.00,0.0102
1326.00,0.0101
1325.00,0.0099
1324.00,0.0098
1323.00,0.0096
1322.00,0.0095
1321.00,0.0094
1320.00,0.0094
1319.00,0.0095
1318.00,0.0095
1317.00,0.0096
1316.00,0.0097
1315.00,0.0098
1314.00,0.0099
1313.00,0.0100
1312.00,0.0100
1311.00,0.0100
1310.00,0.0099
1309.00,0.0098
1308.00,0.0096
1307.00,0.0095
1306.00,0.0093
1305.00,0.0091
1304.00,0.0089
1303.00,0.0088
1302.00,0.0086
1301.00,0.0084
1300.00,0.0082
1299.00,0.0081
1298.00,0.0080
1297.00,0.0080
1296.00,0.0079
1295.00,0.0079
1294.00,0.0078
1293.00,0.0078
1292.00,0.0077
1291.00,0.0076
1290.00,0.0075
1289.00,0.0075
1288.00,0.0074
1287.00,0.0073
1286.00,0.0073
1285.00,0.0072
1284.00,0.0072
1283.00,0.0072
1282.00,0.0071
1281.00,0.0071
1280.00,0.0071
1279.00,0.0070
1278.00,0.0068
1277.00,0.0067
1276.00,0.0065
1275.00,0.0064
1274.00,0.0062
1273.00,0.0060
1272.00,0.0059
1271.00,0.0058
1270.00,0.0057
1269.00,0.0055
1268.00,0.0054
1267.00,0.0053
1266.00,0.0052
1265.00,0.0051
1264.00,0.0051
1263.00,0.0050
1262.00,0.0050
1261.00,0.0049
1260.00,0.0049
1259.00,0.0049
1258.00,0.0049
1257.00,0.0049
1256.00,0.0049
1255.00,0.0049
1254.00,0.0050
1253.00,0.0050
1252.00,0.0051
1251.00,0.0051
1250.00,0.0052
1249.00,0.0052
1248.00,0.0052
1247.00,0.0053
1246.00,0.0053
1245.00,0.0053
1244.00,0.0054
1243.00,0.0054
1242.00,0.0054
1241.00,0.0054
1240.00,0.0053
1239.00,0.0053
1238.00,0.0053
1237.00,0.0053
1236.00,0.0053
1235.00,0.0053
1234.00,0.0053
1233.00,0.0053
1232.00,0.0053
1231.00,0.0054
1230.00,0.0054
1229.00,0.0055
1228.00,0.0055
1227.00,0.0055
1226.00,0.0055
1225.00,0.0056
1224.00,0.0056
1223.00,0.0056
1222.00,0.0056
1221.00,0.0056
1220.00,0.0056
1219.00,0.0056
1218.00,0.0056
1217.00,0.0057
1216.00,0.0057
1215.00,0.0058
1214.00,0.0059
1213.00,0.0060
1212.00,0.0061
1211.00,0.0062
1210.00,0.0063
1209.00,0.0065
1208.00,0.0067
1207.00,0.0068
1206.00,0.0070
1205.00,0.0073
1204.00,0.0075
1203.00,0.0077
1202.00,0.0079
1201.00,0.0081
1200.00,0.0084
1199.00,0.0086
1198.00,0.0087
1197.00,0.0088
1196.00,0.0088
1195.00,0.0088
1194.00,0.0089
1193.00,0.0089
1192.00,0.0089
1191.00,0.0090
1190.00,0.0090
1189.00,0.0091
1188.00,0.0093
1187.00,0.0096
1186.00,0.0101
1185.00,0.0106
1184.00,0.0111
1183.00,0.0116
1182.00,0.0119
1181.00,0.0120
1180.00,0.0118
1179.00,0.0112
1178.00,0.0104
1177.00,0.0095
1176.00,0.0087
1175.00,0.0081
1174.00,0.0076
1173.00,0.0072
1172.00,0.0070
1171.00,0.0068
1170.00,0.0066
1169.00,0.0065
1168.00,0.0065
1167.00,0.0065
1166.00,0.0065
1165.00,0.0066
1164.00,0.0067
1163.00,0.0069
1162.00,0.0071
1161.00,0.0075
1160.00,0.0081
1159.00,0.0089
1158.00,0.0097
1157.00,0.0106
1156.00,0.0113
1155.00,0.0117
1154.00,0.0117
1153.00,0.0113
1152.00,0.0105
1151.00,0.0095
1150.00,0.0085
1149.00,0.0076
1148.00,0.0069
1147.00,0.0064
1146.00,0.0060
1145.00,0.0057
1144.00,0.0055
1143.00,0.0052
1142.00,0.0050
1141.00,0.0048
1140.00,0.0047
1139.00,0.0046
1138.00,0.0045
1137.00,0.0045
1136.00,0.0045
1135.00,0.0044
1134.00,0.0044
1133.00,0.0043
1132.00,0.0043
1131.00,0.0043
1130.00,0.0044
1129.00,0.0044
1128.00,0.0045
1127.00,0.0045
1126.00,0.0046
1125.00,0.0046
1124.00,0.0047
1123.00,0.0049
1122.00,0.0050
1121.00,0.0051
1120.00,0.0053
1119.00,0.0056
1118.00,0.0058
1117.00,0.0060
1116.00,0.0063
1115.00,0.0065
1114.00,0.0066
1113.00,0.0067
1112.00,0.0068
1111.00,0.0068
1110.00,0.0068
1109.00,0.0068
1108.00,0.0067
1107.00,0.0067
1106.00,0.0066
1105.00,0.0066
1104.00,0.0066
1103.00,0.0067
1102.00,0.0067
1101.00,0.0067
1100.00,0.0068
1099.00,0.0068
1098.00,0.0069
1097.00,0.0070
1096.00,0.0072
1095.00,0.0073
1094.00,0.0074
1093.00,0.0075
1092.00,0.0076
1091.00,0.0077
1090.00,0.0078
1089.00,0.0079
1088.00,0.0082
1087.00,0.0084
1086.00,0.0087
1085.00,0.0090
1084.00,0.0094
1083.00,0.0098
1082.00,0.0102
1081.00,0.0106
1080.00,0.0111
1079.00,0.0115
1078.00,0.0119
1077.00,0.0124
1076.00,0.0129
1075.00,0.0136
1074.00,0.0143
1073.00,0.0150
1072.00,0.0157
1071.00,0.0163
1070.00,0.0166
1069.00,0.0168
1068.00,0.0169
1067.00,0.0166
1066.00,0.0162
1065.00,0.0156
1064.00,0.0149
1063.00,0.0143
1062.00,0.0136
1061.00,0.0129
1060.00,0.0124
1059.00,0.0119
1058.00,0.0115
1057.00,0.0111
1056.00,0.0108
1055.00,0.0105
1054.00,0.0102
1053.00,0.0099
1052.00,0.0097
1051.00,0.0095
1050.00,0.0093
1049.00,0.0092
1048.00,0.0090
1047.00,0.0089
1046.00,0.0088
1045.00,0.0087
1044.00,0.0088
1043.00,0.0088
1042.00,0.0089
1041.00,0.0090
1040.00,0.0093
1039.00,0.0097
1038.00,0.0104
1037.00,0.0115
1036.00,0.0130
1035.00,0.0150
1034.00,0.0175
1033.00,0.0203
1032.00,0.0232
1031.00,0.0259
1030.00,0.0280
1029.00,0.0295
1028.00,0.0300
1027.00,0.0295
1026.00,0.0281
1025.00,0.0262
1024.00,0.0240
1023.00,0.0221
1022.00,0.0203
1021.00,0.0189
1020.00,0.0177
1019.00,0.0167
1018.00,0.0158
1017.00,0.0150
1016.00,0.0143
1015.00,0.0137
1014.00,0.0132
1013.00,0.0128
1012.00,0.0124
1011.00,0.0121
1010.00,0.0119
1009.00,0.0118
1008.00,0.0118
1007.00,0.0120
1006.00,0.0123
1005.00,0.0126
1004.00,0.0128
1003.00,0.0128
1002.00,0.0125
1001.00,0.0119
1000.00,0.0112
999.00,0.0105
998.00,0.0099
997.00,0.0094
996.00,0.0092
995.00,0.0091
994.00,0.0090
993.00,0.0090
992.00,0.0090
991.00,0.0091
990.00,0.0092
989.00,0.0094
988.00,0.0096
987.00,0.0099
986.00,0.0101
985.00,0.0104
984.00,0.0108
983.00,0.0110
982.00,0.0112
981.00,0.0114
980.00,0.0114
979.00,0.0114
978.00,0.0112
977.00,0.0109
976.00,0.0106
975.00,0.0104
974.00,0.0101
973.00,0.0100
972.00,0.0100
971.00,0.0102
970.00,0.0104
969.00,0.0108
968.00,0.0112
967.00,0.0116
966.00,0.0119
965.00,0.0120
964.00,0.0121
963.00,0.0120
962.00,0.0117
961.00,0.0112
960.00,0.0106
959.00,0.0100
958.00,0.0095
957.00,0.0090
956.00,0.0087
955.00,0.0085
954.00,0.0084
953.00,0.0083
952.00,0.0083
951.00,0.0084
950.00,0.0085
949.00,0.0087
948.00,0.0089
947.00,0.0091
946.00,0.0092
945.00,0.0094
944.00,0.0095
943.00,0.0095
942.00,0.0094
941.00,0.0093
940.00,0.0092
939.00,0.0089
938.00,0.0086
937.00,0.0083
936.00,0.0080
935.00,0.0077
934.00,0.0074
933.00,0.0072
932.00,0.0070
931.00,0.0069
930.00,0.0068
929.00,0.0067
928.00,0.0068
927.00,0.0068
926.00,0.0069
925.00,0.0070
924.00,0.0071
923.00,0.0073
922.00,0.0075
921.00,0.0077
920.00,0.0081
919.00,0.0085
918.00,0.0090
917.00,0.0097
916.00,0.0104
915.00,0.0114
914.00,0.0125
913.00,0.0137
912.00,0.0151
911.00,0.0165
910.00,0.0179
909.00,0.0191
908.00,0.0201
907.00,0.0206
906.00,0.0207
905.00,0.0203
904.00,0.0195
903.00,0.0183
902.00,0.0168
901.00,0.0152
900.00,0.0136
899.00,0.0122
898.00,0.0110
897.00,0.0099
896.00,0.0091
895.00,0.0084
894.00,0.0079
893.00,0.0075
892.00,0.0072
891.00,0.0070
890.00,0.0067
889.00,0.0064
888.00,0.0063
887.00,0.0061
886.00,0.0060
885.00,0.0058
884.00,0.0058
883.00,0.0057
882.00,0.0056
881.00,0.0055
880.00,0.0055
879.00,0.0054
878.00,0.0052
877.00,0.0051
876.00,0.0051
875.00,0.0050
874.00,0.0050
873.00,0.0049
872.00,0.0050
871.00,0.0050
870.00,0.0049
869.00,0.0049
868.00,0.0049
867.00,0.0048
866.00,0.0048
865.00,0.0047
864.00,0.0047
863.00,0.0047
862.00,0.0047
861.00,0.0047
860.00,0.0048
859.00,0.0048
858.00,0.0049
857.00,0.0050
856.00,0.0051
855.00,0.0052
854.00,0.0054
853.00,0.0056
852.00,0.0060
851.00,0.0064
850.00,0.0068
849.00,0.0073
848.00,0.0079
847.00,0.0085
846.00,0.0090
845.00,0.0095
844.00,0.0099
843.00,0.0102
842.00,0.0104
841.00,0.0103
840.00,0.0102
839.00,0.0099
838.00,0.0093
837.00,0.0086
836.00,0.0080
835.00,0.0073
834.00,0.0066
833.00,0.0060
832.00,0.0056
831.00,0.0053
830.00,0.0050
829.00,0.0048
828.00,0.0047
827.00,0.0046
826.00,0.0044
825.00,0.0043
824.00,0.0042
823.00,0.0042
822.00,0.0042
821.00,0.0042
820.00,0.0043
819.00,0.0044
818.00,0.0044
817.00,0.0045
816.00,0.0045
815.00,0.0046
814.00,0.0046
813.00,0.0046
812.00,0.0047
811.00,0.0048
810.00,0.0048
809.00,0.0048
808.00,0.0049
807.00,0.0049
806.00,0.0049
805.00,0.0050
804.00,0.0051
803.00,0.0052
802.00,0.0053
801.00,0.0054
800.00,0.0057
799.00,0.0059
798.00,0.0062
797.00,0.0065
796.00,0.0069
795.00,0.0072
794.00,0.0076
793.00,0.0080
792.00,0.0085
791.00,0.0091
790.00,0.0096
789.00,0.0102
788.00,0.0109
787.00,0.0116
786.00,0.0124
785.00,0.0131
784.00,0.0140
783.00,0.0149
782.00,0.0159
781.00,0.0170
780.00,0.0184
779.00,0.0199
778.00,0.0216
777.00,0.0236
776.00,0.0258
775.00,0.0282
774.00,0.0308
773.00,0.0336
772.00,0.0367
771.00,0.0400
770.00,0.0434
769.00,0.0470
768.00,0.0506
767.00,0.0542
766.00,0.0576
765.00,0.0609
764.00,0.0644
763.00,0.0679
762.00,0.0715
761.00,0.0752
760.00,0.0789
759.00,0.0823
758.00,0.0852
757.00,0.0874
756.00,0.0890
755.00,0.0897
754.00,0.0897
753.00,0.0895
752.00,0.0891
751.00,0.0888
750.00,0.0885
749.00,0.0882
748.00,0.0876
747.00,0.0862
746.00,0.0836
745.00,0.0796
744.00,0.0746
743.00,0.0688
742.00,0.0627
741.00,0.0567
740.00,0.0511
739.00,0.0460
738.00,0.0413
737.00,0.0370
736.00,0.0329
735.00,0.0290
734.00,0.0252
733.00,0.0218
732.00,0.0189
731.00,0.0166
730.00,0.0147
729.00,0.0132
728.00,0.0122
727.00,0.0115
726.00,0.0109
725.00,0.0105
724.00,0.0103
723.00,0.0102
722.00,0.0102
721.00,0.0102
720.00,0.0103
719.00,0.0106
718.00,0.0109
717.00,0.0113
716.00,0.0120
715.00,0.0130
714.00,0.0144
713.00,0.0164
712.00,0.0193
711.00,0.0232
710.00,0.0284
709.00,0.0352
708.00,0.0440
707.00,0.0549
706.00,0.0679
705.00,0.0831
704.00,0.1005
703.00,0.1197
702.00,0.1406
701.00,0.1630
700.00,0.1864
699.00,0.2101
698.00,0.2333
697.00,0.2545
696.00,0.2706
695.00,0.2776
694.00,0.2723
693.00,0.2545
692.00,0.2277
691.00,0.1975
690.00,0.1687
689.00,0.1438
688.00,0.1235
687.00,0.1075
686.00,0.0949
685.00,0.0848
684.00,0.0767
683.00,0.0699
682.00,0.0642
681.00,0.0593
680.00,0.0552
679.00,0.0516
678.00,0.0484
677.00,0.0457
676.00,0.0435
675.00,0.0416
674.00,0.0398
673.00,0.0383
672.00,0.0371
671.00,0.0360
670.00,0.0349
669.00,0.0336
668.00,0.0322
667.00,0.0307
666.00,0.0294
665.00,0.0284
664.00,0.0273
663.00,0.0262
662.00,0.0249
661.00,0.0238
660.00,0.0227
659.00,0.0217
658.00,0.0206
657.00,0.0197
656.00,0.0188
655.00,0.0181
654.00,0.0173
653.00,0.0167
652.00,0.0161
651.00,0.0156
650.00,0.0150
649.00,0.0144
648.00,0.0140
647.00,0.0137
646.00,0.0133
645.00,0.0131
644.00,0.0130
643.00,0.0128
642.00,0.0127
641.00,0.0126
640.00,0.0127
639.00,0.0129
638.00,0.0131
637.00,0.0135
636.00,0.0139
635.00,0.0143
634.00,0.0147
633.00,0.0150
632.00,0.0154
631.00,0.0157
630.00,0.0160
629.00,0.0162
628.00,0.0166
627.00,0.0168
626.00,0.0170
625.00,0.0171
624.00,0.0173
623.00,0.0177
622.00,0.0181
621.00,0.0183
620.00,0.0183
619.00,0.0180
618.00,0.0174
617.00,0.0168
616.00,0.0163
615.00,0.0159
614.00,0.0154
613.00,0.0150
612.00,0.0147
611.00,0.0143
610.00,0.0140
609.00,0.0138
608.00,0.0138
607.00,0.0139
606.00,0.0138
605.00,0.0137
604.00,0.0138
603.00,0.0139
602.00,0.0140
601.00,0.0141
600.00,0.0143
599.00,0.0145
598.00,0.0146
597.00,0.0148
596.00,0.0150
595.00,0.0152
594.00,0.0154
593.00,0.0156
592.00,0.0159
591.00,0.0163
590.00,0.0165
589.00,0.0168
588.00,0.0172
587.00,0.0175
586.00,0.0177
585.00,0.0180
584.00,0.0185
583.00,0.0190
582.00,0.0196
581.00,0.0203
580.00,0.0212
579.00,0.0221
578.00,0.0230
577.00,0.0240
576.00,0.0253
575.00,0.0265
574.00,0.0277
573.00,0.0288
572.00,0.0300
571.00,0.0312
570.00,0.0323
569.00,0.0335
568.00,0.0349
567.00,0.0361
566.00,0.0372
565.00,0.0383
564.00,0.0395
563.00,0.0408
562.00,0.0418
561.00,0.0429
560.00,0.0442
559.00,0.0456
558.00,0.0468
557.00,0.0480
556.00,0.0493
555.00,0.0507
554.00,0.0519
553.00,0.0532
552.00,0.0548
551.00,0.0564
550.00,0.0582
549.00,0.0602
548.00,0.0628
547.00,0.0655
546.00,0.0682
545.00,0.0711
544.00,0.0744
543.00,0.0777
542.00,0.0805
541.00,0.0832
540.00,0.0856
539.00,0.0873
538.00,0.0877
537.00,0.0871
536.00,0.0857
535.00,0.0833
534.00,0.0796
533.00,0.0753
532.00,0.0708
531.00,0.0661
530.00,0.0612
529.00,0.0568
528.00,0.0531
527.00,0.0496
526.00,0.0461
525.00,0.0428
524.00,0.0402
523.00,0.0379
522.00,0.0357
521.00,0.0339
520.00,0.0324
519.00,0.0312
518.00,0.0299
517.00,0.0289
516.00,0.0281
515.00,0.0272
514.00,0.0262
513.00,0.0252
512.00,0.0244
511.00,0.0237
510.00,0.0227
509.00,0.0218
508.00,0.0211
507.00,0.0205
506.00,0.0197
505.00,0.0190
504.00,0.0186
503.00,0.0182
502.00,0.0177
501.00,0.0172
500.00,0.0170
499.00,0.0167
498.00,0.0162
497.00,0.0156
496.00,0.0152
495.00,0.0149
494.00,0.0145
493.00,0.0143
492.00,0.0143
491.00,0.0142
490.00,0.0138
489.00,0.0135
488.00,0.0134
487.00,0.0132
486.00,0.0128
485.00,0.0125
484.00,0.0126
483.00,0.0125
482.00,0.0121
481.00,0.0117
480.00,0.0116
479.00,0.0116
478.00,0.0114
477.00,0.0114
476.00,0.0117
475.00,0.0119
474.00,0.0116
473.00,0.0112
472.00,0.0112
471.00,0.0111
470.00,0.0108
469.00,0.0106
468.00,0.0108
467.00,0.0109
466.00,0.0107
465.00,0.0104
464.00,0.0105
463.00,0.0105
462.00,0.0102
461.00,0.0101
460.00,0.0104
459.00,0.0106
458.00,0.0103
457.00,0.0101
456.00,0.0103
455.00,0.0103
454.00,0.0099
453.00,0.0097
452.00,0.0099
451.00,0.0099
450.00,0.0096
449.00,0.0095
448.00,0.0099
447.00,0.0103
446.00,0.0102
445.00,0.0100
444.00,0.0099
443.00,0.0098
442.00,0.0092
441.00,0.0088
440.00,0.0089
439.00,0.0089
438.00,0.0086
437.00,0.0084
436.00,0.0086
435.00,0.0085
434.00,0.0079
433.00,0.0074
432.00,0.0077
431.00,0.0081
430.00,0.0079
429.00,0.0077
428.00,0.0078
427.00,0.0078
426.00,0.0073
425.00,0.0070
424.00,0.0074
423.00,0.0076
422.00,0.0072
421.00,0.0068
420.00,0.0073
419.00,0.0080
418.00,0.0077
417.00,0.0073
416.00,0.0078
415.00,0.0083
414.00,0.0080
413.00,0.0076
412.00,0.0079
411.00,0.0085
410.00,0.0085
409.00,0.0085
408.00,0.0089
407.00,0.0091
406.00,0.0087
405.00,0.0086
404.00,0.0097
403.00,0.0102
402.00,0.0091
401.00,0.0076
400.00,0.0069
