Created as New Dataset,Sample 767 By YargerLab Date Monday, July 07 2025
cm-1,A
4000.00,0.0019
3999.00,0.0018
3998.00,0.0018
3997.00,0.0018
3996.00,0.0018
3995.00,0.0018
3994.00,0.0018
3993.00,0.0018
3992.00,0.0018
3991.00,0.0018
3990.00,0.0018
3989.00,0.0018
3988.00,0.0018
3987.00,0.0018
3986.00,0.0018
3985.00,0.0018
3984.00,0.0018
3983.00,0.0018
3982.00,0.0018
3981.00,0.0018
3980.00,0.0018
3979.00,0.0018
3978.00,0.0018
3977.00,0.0018
3976.00,0.0018
3975.00,0.0018
3974.00,0.0018
3973.00,0.0017
3972.00,0.0017
3971.00,0.0017
3970.00,0.0018
3969.00,0.0018
3968.00,0.0018
3967.00,0.0018
3966.00,0.0018
3965.00,0.0018
3964.00,0.0018
3963.00,0.0018
3962.00,0.0018
3961.00,0.0017
3960.00,0.0017
3959.00,0.0017
3958.00,0.0017
3957.00,0.0018
3956.00,0.0018
3955.00,0.0018
3954.00,0.0018
3953.00,0.0018
3952.00,0.0018
3951.00,0.0018
3950.00,0.0018
3949.00,0.0017
3948.00,0.0017
3947.00,0.0017
3946.00,0.0017
3945.00,0.0017
3944.00,0.0017
3943.00,0.0017
3942.00,0.0017
3941.00,0.0017
3940.00,0.0017
3939.00,0.0017
3938.00,0.0018
3937.00,0.0018
3936.00,0.0018
3935.00,0.0017
3934.00,0.0017
3933.00,0.0017
3932.00,0.0017
3931.00,0.0017
3930.00,0.0017
3929.00,0.0017
3928.00,0.0017
3927.00,0.0017
3926.00,0.0017
3925.00,0.0017
3924.00,0.0017
3923.00,0.0017
3922.00,0.0017
3921.00,0.0017
3920.00,0.0017
3919.00,0.0017
3918.00,0.0017
3917.00,0.0017
3916.00,0.0017
3915.00,0.0017
3914.00,0.0017
3913.00,0.0017
3912.00,0.0017
3911.00,0.0017
3910.00,0.0017
3909.00,0.0017
3908.00,0.0017
3907.00,0.0017
3906.00,0.0017
3905.00,0.0017
3904.00,0.0017
3903.00,0.0017
3902.00,0.0016
3901.00,0.0016
3900.00,0.0016
3899.00,0.0016
3898.00,0.0016
3897.00,0.0016
3896.00,0.0016
3895.00,0.0017
3894.00,0.0017
3893.00,0.0017
3892.00,0.0017
3891.00,0.0017
3890.00,0.0017
3889.00,0.0016
3888.00,0.0016
3887.00,0.0016
3886.00,0.0016
3885.00,0.0016
3884.00,0.0016
3883.00,0.0016
3882.00,0.0015
3881.00,0.0015
3880.00,0.0016
3879.00,0.0016
3878.00,0.0016
3877.00,0.0016
3876.00,0.0016
3875.00,0.0016
3874.00,0.0016
3873.00,0.0016
3872.00,0.0016
3871.00,0.0016
3870.00,0.0016
3869.00,0.0016
3868.00,0.0016
3867.00,0.0016
3866.00,0.0015
3865.00,0.0016
3864.00,0.0016
3863.00,0.0016
3862.00,0.0016
3861.00,0.0016
3860.00,0.0016
3859.00,0.0016
3858.00,0.0016
3857.00,0.0016
3856.00,0.0016
3855.00,0.0016
3854.00,0.0016
3853.00,0.0015
3852.00,0.0015
3851.00,0.0015
3850.00,0.0015
3849.00,0.0015
3848.00,0.0016
3847.00,0.0017
3846.00,0.0017
3845.00,0.0017
3844.00,0.0017
3843.00,0.0017
3842.00,0.0017
3841.00,0.0017
3840.00,0.0016
3839.00,0.0016
3838.00,0.0016
3837.00,0.0015
3836.00,0.0015
3835.00,0.0015
3834.00,0.0015
3833.00,0.0015
3832.00,0.0016
3831.00,0.0016
3830.00,0.0017
3829.00,0.0017
3828.00,0.0017
3827.00,0.0017
3826.00,0.0017
3825.00,0.0017
3824.00,0.0017
3823.00,0.0016
3822.00,0.0016
3821.00,0.0017
3820.00,0.0017
3819.00,0.0016
3818.00,0.0016
3817.00,0.0015
3816.00,0.0016
3815.00,0.0016
3814.00,0.0017
3813.00,0.0017
3812.00,0.0017
3811.00,0.0017
3810.00,0.0017
3809.00,0.0017
3808.00,0.0017
3807.00,0.0017
3806.00,0.0017
3805.00,0.0017
3804.00,0.0016
3803.00,0.0016
3802.00,0.0016
3801.00,0.0017
3800.00,0.0017
3799.00,0.0017
3798.00,0.0016
3797.00,0.0017
3796.00,0.0017
3795.00,0.0017
3794.00,0.0017
3793.00,0.0018
3792.00,0.0018
3791.00,0.0018
3790.00,0.0018
3789.00,0.0018
3788.00,0.0018
3787.00,0.0018
3786.00,0.0018
3785.00,0.0018
3784.00,0.0018
3783.00,0.0018
3782.00,0.0018
3781.00,0.0018
3780.00,0.0018
3779.00,0.0018
3778.00,0.0018
3777.00,0.0018
3776.00,0.0018
3775.00,0.0018
3774.00,0.0018
3773.00,0.0018
3772.00,0.0018
3771.00,0.0018
3770.00,0.0018
3769.00,0.0018
3768.00,0.0017
3767.00,0.0017
3766.00,0.0017
3765.00,0.0017
3764.00,0.0017
3763.00,0.0017
3762.00,0.0017
3761.00,0.0018
3760.00,0.0018
3759.00,0.0018
3758.00,0.0017
3757.00,0.0017
3756.00,0.0017
3755.00,0.0017
3754.00,0.0016
3753.00,0.0016
3752.00,0.0016
3751.00,0.0015
3750.00,0.0015
3749.00,0.0015
3748.00,0.0014
3747.00,0.0014
3746.00,0.0013
3745.00,0.0014
3744.00,0.0014
3743.00,0.0015
3742.00,0.0015
3741.00,0.0015
3740.00,0.0015
3739.00,0.0016
3738.00,0.0016
3737.00,0.0016
3736.00,0.0016
3735.00,0.0015
3734.00,0.0014
3733.00,0.0014
3732.00,0.0014
3731.00,0.0015
3730.00,0.0015
3729.00,0.0016
3728.00,0.0016
3727.00,0.0016
3726.00,0.0017
3725.00,0.0017
3724.00,0.0017
3723.00,0.0017
3722.00,0.0017
3721.00,0.0017
3720.00,0.0017
3719.00,0.0016
3718.00,0.0017
3717.00,0.0017
3716.00,0.0017
3715.00,0.0017
3714.00,0.0016
3713.00,0.0016
3712.00,0.0015
3711.00,0.0015
3710.00,0.0014
3709.00,0.0014
3708.00,0.0014
3707.00,0.0015
3706.00,0.0016
3705.00,0.0016
3704.00,0.0016
3703.00,0.0016
3702.00,0.0016
3701.00,0.0017
3700.00,0.0017
3699.00,0.0017
3698.00,0.0017
3697.00,0.0017
3696.00,0.0017
3695.00,0.0017
3694.00,0.0017
3693.00,0.0016
3692.00,0.0016
3691.00,0.0016
3690.00,0.0016
3689.00,0.0016
3688.00,0.0015
3687.00,0.0015
3686.00,0.0015
3685.00,0.0016
3684.00,0.0016
3683.00,0.0017
3682.00,0.0017
3681.00,0.0017
3680.00,0.0017
3679.00,0.0016
3678.00,0.0016
3677.00,0.0015
3676.00,0.0015
3675.00,0.0015
3674.00,0.0015
3673.00,0.0015
3672.00,0.0014
3671.00,0.0015
3670.00,0.0015
3669.00,0.0015
3668.00,0.0015
3667.00,0.0016
3666.00,0.0016
3665.00,0.0017
3664.00,0.0017
3663.00,0.0018
3662.00,0.0018
3661.00,0.0018
3660.00,0.0018
3659.00,0.0018
3658.00,0.0017
3657.00,0.0017
3656.00,0.0017
3655.00,0.0017
3654.00,0.0017
3653.00,0.0017
3652.00,0.0017
3651.00,0.0017
3650.00,0.0017
3649.00,0.0016
3648.00,0.0016
3647.00,0.0016
3646.00,0.0016
3645.00,0.0017
3644.00,0.0017
3643.00,0.0017
3642.00,0.0018
3641.00,0.0018
3640.00,0.0018
3639.00,0.0018
3638.00,0.0018
3637.00,0.0018
3636.00,0.0018
3635.00,0.0018
3634.00,0.0018
3633.00,0.0017
3632.00,0.0017
3631.00,0.0016
3630.00,0.0016
3629.00,0.0016
3628.00,0.0015
3627.00,0.0015
3626.00,0.0015
3625.00,0.0016
3624.00,0.0016
3623.00,0.0017
3622.00,0.0017
3621.00,0.0017
3620.00,0.0017
3619.00,0.0016
3618.00,0.0016
3617.00,0.0016
3616.00,0.0016
3615.00,0.0016
3614.00,0.0016
3613.00,0.0016
3612.00,0.0016
3611.00,0.0016
3610.00,0.0016
3609.00,0.0017
3608.00,0.0017
3607.00,0.0017
3606.00,0.0017
3605.00,0.0017
3604.00,0.0017
3603.00,0.0017
3602.00,0.0017
3601.00,0.0017
3600.00,0.0017
3599.00,0.0017
3598.00,0.0017
3597.00,0.0017
3596.00,0.0017
3595.00,0.0017
3594.00,0.0017
3593.00,0.0017
3592.00,0.0017
3591.00,0.0017
3590.00,0.0017
3589.00,0.0018
3588.00,0.0018
3587.00,0.0018
3586.00,0.0018
3585.00,0.0018
3584.00,0.0018
3583.00,0.0018
3582.00,0.0018
3581.00,0.0018
3580.00,0.0018
3579.00,0.0018
3578.00,0.0019
3577.00,0.0019
3576.00,0.0019
3575.00,0.0019
3574.00,0.0019
3573.00,0.0019
3572.00,0.0018
3571.00,0.0018
3570.00,0.0018
3569.00,0.0017
3568.00,0.0017
3567.00,0.0017
3566.00,0.0017
3565.00,0.0017
3564.00,0.0017
3563.00,0.0018
3562.00,0.0018
3561.00,0.0018
3560.00,0.0019
3559.00,0.0019
3558.00,0.0019
3557.00,0.0019
3556.00,0.0020
3555.00,0.0020
3554.00,0.0020
3553.00,0.0019
3552.00,0.0019
3551.00,0.0019
3550.00,0.0020
3549.00,0.0020
3548.00,0.0020
3547.00,0.0020
3546.00,0.0020
3545.00,0.0020
3544.00,0.0020
3543.00,0.0020
3542.00,0.0020
3541.00,0.0020
3540.00,0.0021
3539.00,0.0021
3538.00,0.0021
3537.00,0.0021
3536.00,0.0021
3535.00,0.0021
3534.00,0.0021
3533.00,0.0021
3532.00,0.0021
3531.00,0.0021
3530.00,0.0021
3529.00,0.0021
3528.00,0.0021
3527.00,0.0021
3526.00,0.0021
3525.00,0.0021
3524.00,0.0021
3523.00,0.0021
3522.00,0.0021
3521.00,0.0021
3520.00,0.0021
3519.00,0.0022
3518.00,0.0022
3517.00,0.0022
3516.00,0.0022
3515.00,0.0022
3514.00,0.0022
3513.00,0.0022
3512.00,0.0022
3511.00,0.0022
3510.00,0.0022
3509.00,0.0022
3508.00,0.0022
3507.00,0.0022
3506.00,0.0022
3505.00,0.0022
3504.00,0.0022
3503.00,0.0022
3502.00,0.0022
3501.00,0.0022
3500.00,0.0022
3499.00,0.0023
3498.00,0.0023
3497.00,0.0023
3496.00,0.0023
3495.00,0.0024
3494.00,0.0024
3493.00,0.0024
3492.00,0.0024
3491.00,0.0024
3490.00,0.0024
3489.00,0.0024
3488.00,0.0023
3487.00,0.0023
3486.00,0.0023
3485.00,0.0023
3484.00,0.0023
3483.00,0.0023
3482.00,0.0023
3481.00,0.0024
3480.00,0.0024
3479.00,0.0024
3478.00,0.0025
3477.00,0.0025
3476.00,0.0025
3475.00,0.0025
3474.00,0.0024
3473.00,0.0024
3472.00,0.0025
3471.00,0.0025
3470.00,0.0025
3469.00,0.0025
3468.00,0.0025
3467.00,0.0025
3466.00,0.0025
3465.00,0.0025
3464.00,0.0025
3463.00,0.0025
3462.00,0.0025
3461.00,0.0025
3460.00,0.0024
3459.00,0.0024
3458.00,0.0024
3457.00,0.0025
3456.00,0.0025
3455.00,0.0025
3454.00,0.0025
3453.00,0.0025
3452.00,0.0024
3451.00,0.0024
3450.00,0.0024
3449.00,0.0025
3448.00,0.0025
3447.00,0.0025
3446.00,0.0025
3445.00,0.0025
3444.00,0.0025
3443.00,0.0025
3442.00,0.0025
3441.00,0.0025
3440.00,0.0025
3439.00,0.0025
3438.00,0.0025
3437.00,0.0025
3436.00,0.0025
3435.00,0.0025
3434.00,0.0025
3433.00,0.0025
3432.00,0.0025
3431.00,0.0025
3430.00,0.0025
3429.00,0.0025
3428.00,0.0025
3427.00,0.0025
3426.00,0.0025
3425.00,0.0025
3424.00,0.0025
3423.00,0.0025
3422.00,0.0025
3421.00,0.0025
3420.00,0.0025
3419.00,0.0024
3418.00,0.0024
3417.00,0.0024
3416.00,0.0024
3415.00,0.0024
3414.00,0.0025
3413.00,0.0025
3412.00,0.0025
3411.00,0.0025
3410.00,0.0025
3409.00,0.0025
3408.00,0.0025
3407.00,0.0025
3406.00,0.0025
3405.00,0.0025
3404.00,0.0025
3403.00,0.0025
3402.00,0.0025
3401.00,0.0025
3400.00,0.0025
3399.00,0.0025
3398.00,0.0025
3397.00,0.0025
3396.00,0.0025
3395.00,0.0025
3394.00,0.0025
3393.00,0.0025
3392.00,0.0025
3391.00,0.0025
3390.00,0.0025
3389.00,0.0025
3388.00,0.0025
3387.00,0.0025
3386.00,0.0025
3385.00,0.0024
3384.00,0.0024
3383.00,0.0024
3382.00,0.0025
3381.00,0.0025
3380.00,0.0025
3379.00,0.0025
3378.00,0.0025
3377.00,0.0025
3376.00,0.0025
3375.00,0.0025
3374.00,0.0025
3373.00,0.0025
3372.00,0.0025
3371.00,0.0025
3370.00,0.0025
3369.00,0.0025
3368.00,0.0025
3367.00,0.0025
3366.00,0.0025
3365.00,0.0025
3364.00,0.0024
3363.00,0.0025
3362.00,0.0025
3361.00,0.0025
3360.00,0.0025
3359.00,0.0025
3358.00,0.0025
3357.00,0.0025
3356.00,0.0025
3355.00,0.0025
3354.00,0.0025
3353.00,0.0025
3352.00,0.0025
3351.00,0.0025
3350.00,0.0025
3349.00,0.0025
3348.00,0.0025
3347.00,0.0024
3346.00,0.0024
3345.00,0.0024
3344.00,0.0024
3343.00,0.0025
3342.00,0.0025
3341.00,0.0025
3340.00,0.0025
3339.00,0.0025
3338.00,0.0025
3337.00,0.0025
3336.00,0.0025
3335.00,0.0025
3334.00,0.0025
3333.00,0.0025
3332.00,0.0025
3331.00,0.0025
3330.00,0.0025
3329.00,0.0025
3328.00,0.0025
3327.00,0.0025
3326.00,0.0025
3325.00,0.0025
3324.00,0.0025
3323.00,0.0025
3322.00,0.0025
3321.00,0.0025
3320.00,0.0025
3319.00,0.0025
3318.00,0.0025
3317.00,0.0025
3316.00,0.0025
3315.00,0.0024
3314.00,0.0024
3313.00,0.0024
3312.00,0.0024
3311.00,0.0024
3310.00,0.0024
3309.00,0.0024
3308.00,0.0024
3307.00,0.0024
3306.00,0.0024
3305.00,0.0024
3304.00,0.0024
3303.00,0.0024
3302.00,0.0024
3301.00,0.0024
3300.00,0.0024
3299.00,0.0024
3298.00,0.0024
3297.00,0.0024
3296.00,0.0024
3295.00,0.0025
3294.00,0.0025
3293.00,0.0025
3292.00,0.0025
3291.00,0.0025
3290.00,0.0025
3289.00,0.0025
3288.00,0.0025
3287.00,0.0024
3286.00,0.0024
3285.00,0.0024
3284.00,0.0024
3283.00,0.0024
3282.00,0.0024
3281.00,0.0024
3280.00,0.0024
3279.00,0.0024
3278.00,0.0024
3277.00,0.0024
3276.00,0.0024
3275.00,0.0024
3274.00,0.0024
3273.00,0.0024
3272.00,0.0024
3271.00,0.0024
3270.00,0.0024
3269.00,0.0025
3268.00,0.0024
3267.00,0.0024
3266.00,0.0024
3265.00,0.0024
3264.00,0.0024
3263.00,0.0024
3262.00,0.0024
3261.00,0.0024
3260.00,0.0024
3259.00,0.0024
3258.00,0.0024
3257.00,0.0024
3256.00,0.0024
3255.00,0.0024
3254.00,0.0024
3253.00,0.0024
3252.00,0.0024
3251.00,0.0024
3250.00,0.0024
3249.00,0.0024
3248.00,0.0024
3247.00,0.0024
3246.00,0.0024
3245.00,0.0024
3244.00,0.0024
3243.00,0.0024
3242.00,0.0023
3241.00,0.0023
3240.00,0.0023
3239.00,0.0023
3238.00,0.0023
3237.00,0.0023
3236.00,0.0023
3235.00,0.0023
3234.00,0.0023
3233.00,0.0023
3232.00,0.0023
3231.00,0.0023
3230.00,0.0023
3229.00,0.0023
3228.00,0.0023
3227.00,0.0023
3226.00,0.0023
3225.00,0.0023
3224.00,0.0023
3223.00,0.0023
3222.00,0.0023
3221.00,0.0023
3220.00,0.0023
3219.00,0.0023
3218.00,0.0023
3217.00,0.0023
3216.00,0.0024
3215.00,0.0024
3214.00,0.0024
3213.00,0.0024
3212.00,0.0024
3211.00,0.0024
3210.00,0.0024
3209.00,0.0024
3208.00,0.0024
3207.00,0.0024
3206.00,0.0024
3205.00,0.0024
3204.00,0.0024
3203.00,0.0024
3202.00,0.0025
3201.00,0.0025
3200.00,0.0025
3199.00,0.0025
3198.00,0.0024
3197.00,0.0024
3196.00,0.0024
3195.00,0.0023
3194.00,0.0023
3193.00,0.0023
3192.00,0.0023
3191.00,0.0023
3190.00,0.0023
3189.00,0.0023
3188.00,0.0023
3187.00,0.0023
3186.00,0.0023
3185.00,0.0023
3184.00,0.0023
3183.00,0.0023
3182.00,0.0023
3181.00,0.0023
3180.00,0.0022
3179.00,0.0022
3178.00,0.0022
3177.00,0.0022
3176.00,0.0023
3175.00,0.0023
3174.00,0.0023
3173.00,0.0023
3172.00,0.0023
3171.00,0.0023
3170.00,0.0024
3169.00,0.0024
3168.00,0.0024
3167.00,0.0025
3166.00,0.0025
3165.00,0.0025
3164.00,0.0025
3163.00,0.0025
3162.00,0.0025
3161.00,0.0025
3160.00,0.0025
3159.00,0.0024
3158.00,0.0024
3157.00,0.0024
3156.00,0.0023
3155.00,0.0023
3154.00,0.0024
3153.00,0.0024
3152.00,0.0024
3151.00,0.0024
3150.00,0.0023
3149.00,0.0023
3148.00,0.0023
3147.00,0.0023
3146.00,0.0023
3145.00,0.0023
3144.00,0.0023
3143.00,0.0023
3142.00,0.0023
3141.00,0.0023
3140.00,0.0023
3139.00,0.0023
3138.00,0.0023
3137.00,0.0023
3136.00,0.0023
3135.00,0.0023
3134.00,0.0023
3133.00,0.0023
3132.00,0.0023
3131.00,0.0023
3130.00,0.0023
3129.00,0.0023
3128.00,0.0023
3127.00,0.0023
3126.00,0.0023
3125.00,0.0024
3124.00,0.0024
3123.00,0.0024
3122.00,0.0025
3121.00,0.0025
3120.00,0.0026
3119.00,0.0026
3118.00,0.0027
3117.00,0.0028
3116.00,0.0029
3115.00,0.0030
3114.00,0.0031
3113.00,0.0032
3112.00,0.0034
3111.00,0.0036
3110.00,0.0038
3109.00,0.0040
3108.00,0.0043
3107.00,0.0046
3106.00,0.0048
3105.00,0.0049
3104.00,0.0050
3103.00,0.0051
3102.00,0.0051
3101.00,0.0050
3100.00,0.0050
3099.00,0.0049
3098.00,0.0048
3097.00,0.0048
3096.00,0.0048
3095.00,0.0049
3094.00,0.0050
3093.00,0.0053
3092.00,0.0057
3091.00,0.0061
3090.00,0.0067
3089.00,0.0074
3088.00,0.0082
3087.00,0.0090
3086.00,0.0099
3085.00,0.0106
3084.00,0.0112
3083.00,0.0116
3082.00,0.0116
3081.00,0.0115
3080.00,0.0111
3079.00,0.0106
3078.00,0.0100
3077.00,0.0095
3076.00,0.0091
3075.00,0.0088
3074.00,0.0086
3073.00,0.0086
3072.00,0.0087
3071.00,0.0089
3070.00,0.0092
3069.00,0.0097
3068.00,0.0103
3067.00,0.0110
3066.00,0.0119
3065.00,0.0127
3064.00,0.0136
3063.00,0.0144
3062.00,0.0151
3061.00,0.0156
3060.00,0.0158
3059.00,0.0158
3058.00,0.0154
3057.00,0.0148
3056.00,0.0140
3055.00,0.0131
3054.00,0.0122
3053.00,0.0114
3052.00,0.0107
3051.00,0.0101
3050.00,0.0095
3049.00,0.0091
3048.00,0.0088
3047.00,0.0085
3046.00,0.0083
3045.00,0.0083
3044.00,0.0083
3043.00,0.0085
3042.00,0.0088
3041.00,0.0092
3040.00,0.0097
3039.00,0.0103
3038.00,0.0110
3037.00,0.0119
3036.00,0.0130
3035.00,0.0143
3034.00,0.0158
3033.00,0.0175
3032.00,0.0194
3031.00,0.0215
3030.00,0.0238
3029.00,0.0259
3028.00,0.0278
3027.00,0.0292
3026.00,0.0301
3025.00,0.0302
3024.00,0.0294
3023.00,0.0279
3022.00,0.0258
3021.00,0.0234
3020.00,0.0208
3019.00,0.0184
3018.00,0.0161
3017.00,0.0142
3016.00,0.0125
3015.00,0.0112
3014.00,0.0101
3013.00,0.0092
3012.00,0.0086
3011.00,0.0082
3010.00,0.0079
3009.00,0.0078
3008.00,0.0078
3007.00,0.0079
3006.00,0.0081
3005.00,0.0083
3004.00,0.0086
3003.00,0.0088
3002.00,0.0089
3001.00,0.0089
3000.00,0.0087
2999.00,0.0083
2998.00,0.0079
2997.00,0.0073
2996.00,0.0068
2995.00,0.0063
2994.00,0.0059
2993.00,0.0055
2992.00,0.0053
2991.00,0.0051
2990.00,0.0050
2989.00,0.0049
2988.00,0.0048
2987.00,0.0048
2986.00,0.0047
2985.00,0.0047
2984.00,0.0047
2983.00,0.0047
2982.00,0.0046
2981.00,0.0046
2980.00,0.0047
2979.00,0.0047
2978.00,0.0048
2977.00,0.0049
2976.00,0.0050
2975.00,0.0050
2974.00,0.0051
2973.00,0.0052
2972.00,0.0053
2971.00,0.0053
2970.00,0.0054
2969.00,0.0055
2968.00,0.0057
2967.00,0.0058
2966.00,0.0060
2965.00,0.0062
2964.00,0.0064
2963.00,0.0066
2962.00,0.0068
2961.00,0.0070
2960.00,0.0073
2959.00,0.0076
2958.00,0.0078
2957.00,0.0082
2956.00,0.0085
2955.00,0.0089
2954.00,0.0092
2953.00,0.0096
2952.00,0.0101
2951.00,0.0106
2950.00,0.0111
2949.00,0.0117
2948.00,0.0123
2947.00,0.0130
2946.00,0.0137
2945.00,0.0144
2944.00,0.0152
2943.00,0.0161
2942.00,0.0170
2941.00,0.0179
2940.00,0.0190
2939.00,0.0201
2938.00,0.0212
2937.00,0.0224
2936.00,0.0236
2935.00,0.0249
2934.00,0.0262
2933.00,0.0275
2932.00,0.0288
2931.00,0.0301
2930.00,0.0313
2929.00,0.0324
2928.00,0.0334
2927.00,0.0343
2926.00,0.0350
2925.00,0.0356
2924.00,0.0360
2923.00,0.0363
2922.00,0.0364
2921.00,0.0363
2920.00,0.0361
2919.00,0.0358
2918.00,0.0353
2917.00,0.0348
2916.00,0.0341
2915.00,0.0334
2914.00,0.0326
2913.00,0.0318
2912.00,0.0309
2911.00,0.0300
2910.00,0.0291
2909.00,0.0282
2908.00,0.0273
2907.00,0.0264
2906.00,0.0255
2905.00,0.0246
2904.00,0.0236
2903.00,0.0227
2902.00,0.0218
2901.00,0.0208
2900.00,0.0199
2899.00,0.0191
2898.00,0.0183
2897.00,0.0175
2896.00,0.0168
2895.00,0.0162
2894.00,0.0157
2893.00,0.0152
2892.00,0.0147
2891.00,0.0142
2890.00,0.0138
2889.00,0.0135
2888.00,0.0132
2887.00,0.0128
2886.00,0.0126
2885.00,0.0123
2884.00,0.0120
2883.00,0.0117
2882.00,0.0114
2881.00,0.0111
2880.00,0.0108
2879.00,0.0106
2878.00,0.0104
2877.00,0.0102
2876.00,0.0100
2875.00,0.0098
2874.00,0.0096
2873.00,0.0095
2872.00,0.0093
2871.00,0.0093
2870.00,0.0092
2869.00,0.0092
2868.00,0.0093
2867.00,0.0094
2866.00,0.0096
2865.00,0.0098
2864.00,0.0101
2863.00,0.0104
2862.00,0.0108
2861.00,0.0112
2860.00,0.0117
2859.00,0.0122
2858.00,0.0128
2857.00,0.0133
2856.00,0.0139
2855.00,0.0144
2854.00,0.0149
2853.00,0.0153
2852.00,0.0156
2851.00,0.0159
2850.00,0.0160
2849.00,0.0160
2848.00,0.0159
2847.00,0.0156
2846.00,0.0151
2845.00,0.0145
2844.00,0.0138
2843.00,0.0130
2842.00,0.0121
2841.00,0.0112
2840.00,0.0102
2839.00,0.0093
2838.00,0.0085
2837.00,0.0078
2836.00,0.0072
2835.00,0.0066
2834.00,0.0061
2833.00,0.0057
2832.00,0.0054
2831.00,0.0052
2830.00,0.0050
2829.00,0.0048
2828.00,0.0047
2827.00,0.0046
2826.00,0.0045
2825.00,0.0044
2824.00,0.0043
2823.00,0.0042
2822.00,0.0042
2821.00,0.0041
2820.00,0.0041
2819.00,0.0040
2818.00,0.0040
2817.00,0.0039
2816.00,0.0039
2815.00,0.0039
2814.00,0.0039
2813.00,0.0039
2812.00,0.0039
2811.00,0.0038
2810.00,0.0038
2809.00,0.0038
2808.00,0.0038
2807.00,0.0037
2806.00,0.0037
2805.00,0.0036
2804.00,0.0036
2803.00,0.0035
2802.00,0.0035
2801.00,0.0035
2800.00,0.0035
2799.00,0.0035
2798.00,0.0034
2797.00,0.0034
2796.00,0.0034
2795.00,0.0033
2794.00,0.0033
2793.00,0.0033
2792.00,0.0033
2791.00,0.0033
2790.00,0.0033
2789.00,0.0033
2788.00,0.0033
2787.00,0.0032
2786.00,0.0032
2785.00,0.0032
2784.00,0.0032
2783.00,0.0032
2782.00,0.0032
2781.00,0.0032
2780.00,0.0032
2779.00,0.0032
2778.00,0.0032
2777.00,0.0032
2776.00,0.0032
2775.00,0.0031
2774.00,0.0031
2773.00,0.0031
2772.00,0.0031
2771.00,0.0030
2770.00,0.0030
2769.00,0.0030
2768.00,0.0030
2767.00,0.0030
2766.00,0.0030
2765.00,0.0030
2764.00,0.0029
2763.00,0.0029
2762.00,0.0029
2761.00,0.0029
2760.00,0.0029
2759.00,0.0029
2758.00,0.0029
2757.00,0.0029
2756.00,0.0029
2755.00,0.0029
2754.00,0.0029
2753.00,0.0028
2752.00,0.0028
2751.00,0.0028
2750.00,0.0028
2749.00,0.0028
2748.00,0.0028
2747.00,0.0028
2746.00,0.0028
2745.00,0.0029
2744.00,0.0029
2743.00,0.0029
2742.00,0.0029
2741.00,0.0029
2740.00,0.0028
2739.00,0.0028
2738.00,0.0028
2737.00,0.0029
2736.00,0.0029
2735.00,0.0029
2734.00,0.0029
2733.00,0.0029
2732.00,0.0029
2731.00,0.0029
2730.00,0.0029
2729.00,0.0029
2728.00,0.0029
2727.00,0.0029
2726.00,0.0029
2725.00,0.0029
2724.00,0.0029
2723.00,0.0029
2722.00,0.0029
2721.00,0.0029
2720.00,0.0029
2719.00,0.0029
2718.00,0.0029
2717.00,0.0029
2716.00,0.0029
2715.00,0.0029
2714.00,0.0029
2713.00,0.0028
2712.00,0.0028
2711.00,0.0028
2710.00,0.0029
2709.00,0.0029
2708.00,0.0029
2707.00,0.0029
2706.00,0.0029
2705.00,0.0029
2704.00,0.0029
2703.00,0.0029
2702.00,0.0029
2701.00,0.0029
2700.00,0.0029
2699.00,0.0028
2698.00,0.0028
2697.00,0.0028
2696.00,0.0028
2695.00,0.0028
2694.00,0.0029
2693.00,0.0029
2692.00,0.0029
2691.00,0.0029
2690.00,0.0028
2689.00,0.0028
2688.00,0.0028
2687.00,0.0028
2686.00,0.0028
2685.00,0.0029
2684.00,0.0029
2683.00,0.0029
2682.00,0.0028
2681.00,0.0028
2680.00,0.0028
2679.00,0.0028
2678.00,0.0028
2677.00,0.0028
2676.00,0.0028
2675.00,0.0028
2674.00,0.0028
2673.00,0.0028
2672.00,0.0028
2671.00,0.0028
2670.00,0.0029
2669.00,0.0029
2668.00,0.0029
2667.00,0.0029
2666.00,0.0030
2665.00,0.0030
2664.00,0.0031
2663.00,0.0031
2662.00,0.0032
2661.00,0.0032
2660.00,0.0032
2659.00,0.0033
2658.00,0.0033
2657.00,0.0033
2656.00,0.0033
2655.00,0.0033
2654.00,0.0033
2653.00,0.0033
2652.00,0.0033
2651.00,0.0033
2650.00,0.0033
2649.00,0.0033
2648.00,0.0034
2647.00,0.0034
2646.00,0.0034
2645.00,0.0034
2644.00,0.0034
2643.00,0.0034
2642.00,0.0034
2641.00,0.0034
2640.00,0.0034
2639.00,0.0034
2638.00,0.0034
2637.00,0.0034
2636.00,0.0034
2635.00,0.0034
2634.00,0.0034
2633.00,0.0034
2632.00,0.0034
2631.00,0.0034
2630.00,0.0034
2629.00,0.0034
2628.00,0.0033
2627.00,0.0033
2626.00,0.0033
2625.00,0.0032
2624.00,0.0032
2623.00,0.0032
2622.00,0.0031
2621.00,0.0031
2620.00,0.0031
2619.00,0.0031
2618.00,0.0030
2617.00,0.0030
2616.00,0.0030
2615.00,0.0030
2614.00,0.0030
2613.00,0.0030
2612.00,0.0030
2611.00,0.0031
2610.00,0.0031
2609.00,0.0031
2608.00,0.0031
2607.00,0.0031
2606.00,0.0031
2605.00,0.0031
2604.00,0.0031
2603.00,0.0031
2602.00,0.0031
2601.00,0.0030
2600.00,0.0030
2599.00,0.0030
2598.00,0.0030
2597.00,0.0029
2596.00,0.0029
2595.00,0.0029
2594.00,0.0028
2593.00,0.0028
2592.00,0.0028
2591.00,0.0028
2590.00,0.0028
2589.00,0.0028
2588.00,0.0028
2587.00,0.0028
2586.00,0.0028
2585.00,0.0028
2584.00,0.0028
2583.00,0.0029
2582.00,0.0028
2581.00,0.0028
2580.00,0.0028
2579.00,0.0028
2578.00,0.0028
2577.00,0.0027
2576.00,0.0027
2575.00,0.0027
2574.00,0.0026
2573.00,0.0026
2572.00,0.0026
2571.00,0.0026
2570.00,0.0026
2569.00,0.0026
2568.00,0.0026
2567.00,0.0026
2566.00,0.0026
2565.00,0.0026
2564.00,0.0026
2563.00,0.0026
2562.00,0.0025
2561.00,0.0025
2560.00,0.0025
2559.00,0.0025
2558.00,0.0025
2557.00,0.0025
2556.00,0.0025
2555.00,0.0025
2554.00,0.0025
2553.00,0.0025
2552.00,0.0025
2551.00,0.0025
2550.00,0.0025
2549.00,0.0025
2548.00,0.0025
2547.00,0.0025
2546.00,0.0025
2545.00,0.0025
2544.00,0.0025
2543.00,0.0025
2542.00,0.0025
2541.00,0.0025
2540.00,0.0024
2539.00,0.0024
2538.00,0.0024
2537.00,0.0024
2536.00,0.0024
2535.00,0.0024
2534.00,0.0023
2533.00,0.0023
2532.00,0.0023
2531.00,0.0023
2530.00,0.0024
2529.00,0.0024
2528.00,0.0024
2527.00,0.0024
2526.00,0.0024
2525.00,0.0024
2524.00,0.0024
2523.00,0.0024
2522.00,0.0024
2521.00,0.0024
2520.00,0.0024
2519.00,0.0024
2518.00,0.0024
2517.00,0.0024
2516.00,0.0024
2515.00,0.0024
2514.00,0.0023
2513.00,0.0024
2512.00,0.0024
2511.00,0.0024
2510.00,0.0024
2509.00,0.0024
2508.00,0.0023
2507.00,0.0023
2506.00,0.0023
2505.00,0.0023
2504.00,0.0023
2503.00,0.0023
2502.00,0.0022
2501.00,0.0022
2500.00,0.0022
2499.00,0.0023
2498.00,0.0023
2497.00,0.0023
2496.00,0.0023
2495.00,0.0022
2494.00,0.0022
2493.00,0.0022
2492.00,0.0023
2491.00,0.0023
2490.00,0.0023
2489.00,0.0023
2488.00,0.0022
2487.00,0.0022
2486.00,0.0022
2485.00,0.0022
2484.00,0.0022
2483.00,0.0022
2482.00,0.0022
2481.00,0.0022
2480.00,0.0022
2479.00,0.0022
2478.00,0.0022
2477.00,0.0022
2476.00,0.0021
2475.00,0.0021
2474.00,0.0021
2473.00,0.0021
2472.00,0.0021
2471.00,0.0022
2470.00,0.0022
2469.00,0.0022
2468.00,0.0021
2467.00,0.0021
2466.00,0.0022
2465.00,0.0022
2464.00,0.0022
2463.00,0.0022
2462.00,0.0022
2461.00,0.0022
2460.00,0.0022
2459.00,0.0022
2458.00,0.0022
2457.00,0.0022
2456.00,0.0022
2455.00,0.0022
2454.00,0.0023
2453.00,0.0023
2452.00,0.0023
2451.00,0.0023
2450.00,0.0022
2449.00,0.0022
2448.00,0.0022
2447.00,0.0022
2446.00,0.0022
2445.00,0.0021
2444.00,0.0021
2443.00,0.0021
2442.00,0.0021
2441.00,0.0021
2440.00,0.0021
2439.00,0.0021
2438.00,0.0020
2437.00,0.0020
2436.00,0.0020
2435.00,0.0020
2434.00,0.0019
2433.00,0.0019
2432.00,0.0019
2431.00,0.0020
2430.00,0.0020
2429.00,0.0020
2428.00,0.0020
2427.00,0.0020
2426.00,0.0020
2425.00,0.0019
2424.00,0.0019
2423.00,0.0019
2422.00,0.0018
2421.00,0.0018
2420.00,0.0018
2419.00,0.0018
2418.00,0.0019
2417.00,0.0019
2416.00,0.0019
2415.00,0.0019
2414.00,0.0019
2413.00,0.0019
2412.00,0.0019
2411.00,0.0019
2410.00,0.0019
2409.00,0.0019
2408.00,0.0018
2407.00,0.0017
2406.00,0.0017
2405.00,0.0017
2404.00,0.0017
2403.00,0.0017
2402.00,0.0017
2401.00,0.0017
2400.00,0.0017
2399.00,0.0017
2398.00,0.0017
2397.00,0.0017
2396.00,0.0017
2395.00,0.0017
2394.00,0.0017
2393.00,0.0017
2392.00,0.0017
2391.00,0.0017
2390.00,0.0017
2389.00,0.0017
2388.00,0.0017
2387.00,0.0017
2386.00,0.0017
2385.00,0.0017
2384.00,0.0017
2383.00,0.0017
2382.00,0.0017
2381.00,0.0018
2380.00,0.0018
2379.00,0.0018
2378.00,0.0018
2377.00,0.0018
2376.00,0.0018
2375.00,0.0018
2374.00,0.0018
2373.00,0.0018
2372.00,0.0017
2371.00,0.0016
2370.00,0.0016
2369.00,0.0016
2368.00,0.0017
2367.00,0.0018
2366.00,0.0019
2365.00,0.0019
2364.00,0.0020
2363.00,0.0020
2362.00,0.0020
2361.00,0.0021
2360.00,0.0021
2359.00,0.0021
2358.00,0.0021
2357.00,0.0021
2356.00,0.0021
2355.00,0.0021
2354.00,0.0021
2353.00,0.0021
2352.00,0.0022
2351.00,0.0022
2350.00,0.0023
2349.00,0.0024
2348.00,0.0025
2347.00,0.0025
2346.00,0.0025
2345.00,0.0025
2344.00,0.0025
2343.00,0.0025
2342.00,0.0026
2341.00,0.0027
2340.00,0.0028
2339.00,0.0028
2338.00,0.0028
2337.00,0.0028
2336.00,0.0028
2335.00,0.0027
2334.00,0.0027
2333.00,0.0026
2332.00,0.0026
2331.00,0.0025
2330.00,0.0025
2329.00,0.0026
2328.00,0.0029
2327.00,0.0033
2326.00,0.0037
2325.00,0.0038
2324.00,0.0038
2323.00,0.0036
2322.00,0.0034
2321.00,0.0032
2320.00,0.0031
2319.00,0.0031
2318.00,0.0030
2317.00,0.0030
2316.00,0.0030
2315.00,0.0030
2314.00,0.0030
2313.00,0.0030
2312.00,0.0030
2311.00,0.0030
2310.00,0.0030
2309.00,0.0029
2308.00,0.0029
2307.00,0.0028
2306.00,0.0028
2305.00,0.0027
2304.00,0.0027
2303.00,0.0027
2302.00,0.0027
2301.00,0.0027
2300.00,0.0027
2299.00,0.0027
2298.00,0.0028
2297.00,0.0028
2296.00,0.0028
2295.00,0.0029
2294.00,0.0030
2293.00,0.0030
2292.00,0.0031
2291.00,0.0031
2290.00,0.0031
2289.00,0.0031
2288.00,0.0031
2287.00,0.0032
2286.00,0.0032
2285.00,0.0031
2284.00,0.0031
2283.00,0.0030
2282.00,0.0030
2281.00,0.0029
2280.00,0.0028
2279.00,0.0028
2278.00,0.0027
2277.00,0.0027
2276.00,0.0026
2275.00,0.0026
2274.00,0.0027
2273.00,0.0026
2272.00,0.0026
2271.00,0.0026
2270.00,0.0025
2269.00,0.0025
2268.00,0.0024
2267.00,0.0024
2266.00,0.0023
2265.00,0.0023
2264.00,0.0023
2263.00,0.0023
2262.00,0.0023
2261.00,0.0023
2260.00,0.0024
2259.00,0.0024
2258.00,0.0024
2257.00,0.0023
2256.00,0.0022
2255.00,0.0022
2254.00,0.0022
2253.00,0.0023
2252.00,0.0023
2251.00,0.0023
2250.00,0.0023
2249.00,0.0023
2248.00,0.0022
2247.00,0.0022
2246.00,0.0022
2245.00,0.0021
2244.00,0.0021
2243.00,0.0022
2242.00,0.0022
2241.00,0.0022
2240.00,0.0022
2239.00,0.0022
2238.00,0.0022
2237.00,0.0021
2236.00,0.0021
2235.00,0.0020
2234.00,0.0019
2233.00,0.0019
2232.00,0.0019
2231.00,0.0020
2230.00,0.0020
2229.00,0.0020
2228.00,0.0020
2227.00,0.0020
2226.00,0.0019
2225.00,0.0019
2224.00,0.0019
2223.00,0.0019
2222.00,0.0019
2221.00,0.0019
2220.00,0.0019
2219.00,0.0019
2218.00,0.0020
2217.00,0.0020
2216.00,0.0021
2215.00,0.0021
2214.00,0.0020
2213.00,0.0020
2212.00,0.0019
2211.00,0.0020
2210.00,0.0021
2209.00,0.0022
2208.00,0.0022
2207.00,0.0022
2206.00,0.0022
2205.00,0.0021
2204.00,0.0021
2203.00,0.0021
2202.00,0.0022
2201.00,0.0022
2200.00,0.0022
2199.00,0.0021
2198.00,0.0019
2197.00,0.0019
2196.00,0.0019
2195.00,0.0020
2194.00,0.0021
2193.00,0.0022
2192.00,0.0023
2191.00,0.0024
2190.00,0.0024
2189.00,0.0023
2188.00,0.0023
2187.00,0.0022
2186.00,0.0022
2185.00,0.0021
2184.00,0.0019
2183.00,0.0017
2182.00,0.0016
2181.00,0.0015
2180.00,0.0015
2179.00,0.0016
2178.00,0.0015
2177.00,0.0013
2176.00,0.0011
2175.00,0.0011
2174.00,0.0012
2173.00,0.0014
2172.00,0.0018
2171.00,0.0021
2170.00,0.0024
2169.00,0.0026
2168.00,0.0027
2167.00,0.0026
2166.00,0.0026
2165.00,0.0026
2164.00,0.0028
2163.00,0.0030
2162.00,0.0026
2161.00,0.0016
2160.00,0.0003
2159.00,-0.0010
2158.00,-0.0017
2157.00,-0.0018
2156.00,-0.0016
2155.00,-0.0013
2154.00,-0.0010
2153.00,-0.0007
2152.00,-0.0004
2151.00,-0.0002
2150.00,-0.0001
2149.00,-0.0001
2148.00,-0.0002
2147.00,-0.0003
2146.00,-0.0004
2145.00,-0.0004
2144.00,-0.0004
2143.00,-0.0003
2142.00,-0.0003
2141.00,-0.0002
2140.00,-0.0001
2139.00,-0.0001
2138.00,-0.0003
2137.00,-0.0005
2136.00,-0.0007
2135.00,-0.0009
2134.00,-0.0009
2133.00,-0.0007
2132.00,-0.0005
2131.00,-0.0003
2130.00,-0.0001
2129.00,-0.0000
2128.00,0.0001
2127.00,0.0002
2126.00,0.0004
2125.00,0.0006
2124.00,0.0007
2123.00,0.0008
2122.00,0.0010
2121.00,0.0011
2120.00,0.0012
2119.00,0.0013
2118.00,0.0013
2117.00,0.0014
2116.00,0.0015
2115.00,0.0016
2114.00,0.0016
2113.00,0.0016
2112.00,0.0015
2111.00,0.0015
2110.00,0.0014
2109.00,0.0014
2108.00,0.0015
2107.00,0.0015
2106.00,0.0015
2105.00,0.0014
2104.00,0.0014
2103.00,0.0014
2102.00,0.0014
2101.00,0.0015
2100.00,0.0016
2099.00,0.0016
2098.00,0.0015
2097.00,0.0013
2096.00,0.0011
2095.00,0.0010
2094.00,0.0010
2093.00,0.0011
2092.00,0.0012
2091.00,0.0013
2090.00,0.0015
2089.00,0.0016
2088.00,0.0017
2087.00,0.0017
2086.00,0.0017
2085.00,0.0016
2084.00,0.0016
2083.00,0.0016
2082.00,0.0016
2081.00,0.0017
2080.00,0.0017
2079.00,0.0017
2078.00,0.0017
2077.00,0.0017
2076.00,0.0017
2075.00,0.0016
2074.00,0.0016
2073.00,0.0016
2072.00,0.0015
2071.00,0.0015
2070.00,0.0014
2069.00,0.0014
2068.00,0.0013
2067.00,0.0014
2066.00,0.0014
2065.00,0.0014
2064.00,0.0015
2063.00,0.0015
2062.00,0.0014
2061.00,0.0013
2060.00,0.0012
2059.00,0.0011
2058.00,0.0010
2057.00,0.0009
2056.00,0.0009
2055.00,0.0010
2054.00,0.0014
2053.00,0.0019
2052.00,0.0023
2051.00,0.0024
2050.00,0.0022
2049.00,0.0018
2048.00,0.0015
2047.00,0.0014
2046.00,0.0014
2045.00,0.0015
2044.00,0.0016
2043.00,0.0017
2042.00,0.0018
2041.00,0.0017
2040.00,0.0017
2039.00,0.0018
2038.00,0.0018
2037.00,0.0017
2036.00,0.0016
2035.00,0.0013
2034.00,0.0010
2033.00,0.0008
2032.00,0.0007
2031.00,0.0006
2030.00,0.0006
2029.00,0.0006
2028.00,0.0006
2027.00,0.0005
2026.00,0.0004
2025.00,0.0004
2024.00,0.0004
2023.00,0.0005
2022.00,0.0006
2021.00,0.0006
2020.00,0.0007
2019.00,0.0007
2018.00,0.0007
2017.00,0.0006
2016.00,0.0006
2015.00,0.0006
2014.00,0.0007
2013.00,0.0009
2012.00,0.0011
2011.00,0.0012
2010.00,0.0011
2009.00,0.0009
2008.00,0.0006
2007.00,0.0003
2006.00,0.0003
2005.00,0.0004
2004.00,0.0005
2003.00,0.0005
2002.00,0.0006
2001.00,0.0006
2000.00,0.0007
1999.00,0.0008
1998.00,0.0009
1997.00,0.0011
1996.00,0.0013
1995.00,0.0014
1994.00,0.0016
1993.00,0.0017
1992.00,0.0017
1991.00,0.0018
1990.00,0.0018
1989.00,0.0018
1988.00,0.0019
1987.00,0.0020
1986.00,0.0022
1985.00,0.0024
1984.00,0.0026
1983.00,0.0029
1982.00,0.0031
1981.00,0.0032
1980.00,0.0029
1979.00,0.0023
1978.00,0.0016
1977.00,0.0012
1976.00,0.0010
1975.00,0.0009
1974.00,0.0009
1973.00,0.0010
1972.00,0.0010
1971.00,0.0011
1970.00,0.0012
1969.00,0.0014
1968.00,0.0015
1967.00,0.0017
1966.00,0.0019
1965.00,0.0021
1964.00,0.0022
1963.00,0.0024
1962.00,0.0024
1961.00,0.0024
1960.00,0.0024
1959.00,0.0023
1958.00,0.0024
1957.00,0.0025
1956.00,0.0027
1955.00,0.0030
1954.00,0.0032
1953.00,0.0033
1952.00,0.0035
1951.00,0.0038
1950.00,0.0040
1949.00,0.0041
1948.00,0.0042
1947.00,0.0043
1946.00,0.0045
1945.00,0.0046
1944.00,0.0047
1943.00,0.0047
1942.00,0.0045
1941.00,0.0043
1940.00,0.0042
1939.00,0.0041
1938.00,0.0041
1937.00,0.0040
1936.00,0.0038
1935.00,0.0035
1934.00,0.0033
1933.00,0.0030
1932.00,0.0028
1931.00,0.0026
1930.00,0.0025
1929.00,0.0023
1928.00,0.0021
1927.00,0.0020
1926.00,0.0019
1925.00,0.0018
1924.00,0.0018
1923.00,0.0018
1922.00,0.0018
1921.00,0.0017
1920.00,0.0016
1919.00,0.0015
1918.00,0.0015
1917.00,0.0016
1916.00,0.0016
1915.00,0.0017
1914.00,0.0017
1913.00,0.0017
1912.00,0.0017
1911.00,0.0016
1910.00,0.0016
1909.00,0.0016
1908.00,0.0016
1907.00,0.0017
1906.00,0.0017
1905.00,0.0017
1904.00,0.0018
1903.00,0.0019
1902.00,0.0019
1901.00,0.0020
1900.00,0.0020
1899.00,0.0020
1898.00,0.0021
1897.00,0.0021
1896.00,0.0022
1895.00,0.0024
1894.00,0.0025
1893.00,0.0027
1892.00,0.0028
1891.00,0.0030
1890.00,0.0031
1889.00,0.0032
1888.00,0.0033
1887.00,0.0034
1886.00,0.0035
1885.00,0.0036
1884.00,0.0037
1883.00,0.0038
1882.00,0.0039
1881.00,0.0039
1880.00,0.0040
1879.00,0.0041
1878.00,0.0042
1877.00,0.0042
1876.00,0.0043
1875.00,0.0043
1874.00,0.0044
1873.00,0.0045
1872.00,0.0045
1871.00,0.0046
1870.00,0.0046
1869.00,0.0045
1868.00,0.0045
1867.00,0.0044
1866.00,0.0043
1865.00,0.0042
1864.00,0.0040
1863.00,0.0039
1862.00,0.0036
1861.00,0.0034
1860.00,0.0032
1859.00,0.0030
1858.00,0.0029
1857.00,0.0027
1856.00,0.0026
1855.00,0.0025
1854.00,0.0024
1853.00,0.0024
1852.00,0.0023
1851.00,0.0022
1850.00,0.0021
1849.00,0.0020
1848.00,0.0020
1847.00,0.0019
1846.00,0.0019
1845.00,0.0018
1844.00,0.0018
1843.00,0.0018
1842.00,0.0018
1841.00,0.0018
1840.00,0.0018
1839.00,0.0018
1838.00,0.0018
1837.00,0.0018
1836.00,0.0018
1835.00,0.0019
1834.00,0.0020
1833.00,0.0021
1832.00,0.0021
1831.00,0.0022
1830.00,0.0023
1829.00,0.0024
1828.00,0.0025
1827.00,0.0026
1826.00,0.0027
1825.00,0.0028
1824.00,0.0029
1823.00,0.0030
1822.00,0.0031
1821.00,0.0032
1820.00,0.0032
1819.00,0.0032
1818.00,0.0033
1817.00,0.0034
1816.00,0.0035
1815.00,0.0038
1814.00,0.0040
1813.00,0.0042
1812.00,0.0043
1811.00,0.0045
1810.00,0.0047
1809.00,0.0048
1808.00,0.0049
1807.00,0.0051
1806.00,0.0052
1805.00,0.0053
1804.00,0.0054
1803.00,0.0055
1802.00,0.0055
1801.00,0.0054
1800.00,0.0053
1799.00,0.0053
1798.00,0.0052
1797.00,0.0050
1796.00,0.0048
1795.00,0.0047
1794.00,0.0045
1793.00,0.0042
1792.00,0.0040
1791.00,0.0039
1790.00,0.0037
1789.00,0.0036
1788.00,0.0036
1787.00,0.0035
1786.00,0.0034
1785.00,0.0033
1784.00,0.0033
1783.00,0.0033
1782.00,0.0033
1781.00,0.0033
1780.00,0.0033
1779.00,0.0034
1778.00,0.0034
1777.00,0.0035
1776.00,0.0035
1775.00,0.0035
1774.00,0.0035
1773.00,0.0035
1772.00,0.0036
1771.00,0.0036
1770.00,0.0036
1769.00,0.0036
1768.00,0.0037
1767.00,0.0038
1766.00,0.0039
1765.00,0.0039
1764.00,0.0040
1763.00,0.0042
1762.00,0.0043
1761.00,0.0044
1760.00,0.0045
1759.00,0.0046
1758.00,0.0048
1757.00,0.0050
1756.00,0.0052
1755.00,0.0054
1754.00,0.0056
1753.00,0.0058
1752.00,0.0060
1751.00,0.0062
1750.00,0.0063
1749.00,0.0065
1748.00,0.0066
1747.00,0.0068
1746.00,0.0069
1745.00,0.0070
1744.00,0.0071
1743.00,0.0071
1742.00,0.0072
1741.00,0.0072
1740.00,0.0072
1739.00,0.0072
1738.00,0.0072
1737.00,0.0072
1736.00,0.0071
1735.00,0.0071
1734.00,0.0069
1733.00,0.0067
1732.00,0.0065
1731.00,0.0064
1730.00,0.0063
1729.00,0.0062
1728.00,0.0061
1727.00,0.0061
1726.00,0.0060
1725.00,0.0059
1724.00,0.0058
1723.00,0.0057
1722.00,0.0056
1721.00,0.0056
1720.00,0.0055
1719.00,0.0054
1718.00,0.0054
1717.00,0.0052
1716.00,0.0051
1715.00,0.0050
1714.00,0.0050
1713.00,0.0050
1712.00,0.0049
1711.00,0.0049
1710.00,0.0049
1709.00,0.0048
1708.00,0.0048
1707.00,0.0047
1706.00,0.0047
1705.00,0.0047
1704.00,0.0047
1703.00,0.0047
1702.00,0.0047
1701.00,0.0047
1700.00,0.0046
1699.00,0.0045
1698.00,0.0044
1697.00,0.0043
1696.00,0.0043
1695.00,0.0043
1694.00,0.0043
1693.00,0.0043
1692.00,0.0043
1691.00,0.0043
1690.00,0.0044
1689.00,0.0044
1688.00,0.0045
1687.00,0.0045
1686.00,0.0046
1685.00,0.0046
1684.00,0.0047
1683.00,0.0047
1682.00,0.0047
1681.00,0.0048
1680.00,0.0048
1679.00,0.0049
1678.00,0.0049
1677.00,0.0049
1676.00,0.0050
1675.00,0.0050
1674.00,0.0050
1673.00,0.0050
1672.00,0.0050
1671.00,0.0050
1670.00,0.0050
1669.00,0.0051
1668.00,0.0051
1667.00,0.0051
1666.00,0.0051
1665.00,0.0051
1664.00,0.0051
1663.00,0.0051
1662.00,0.0050
1661.00,0.0049
1660.00,0.0049
1659.00,0.0048
1658.00,0.0048
1657.00,0.0047
1656.00,0.0047
1655.00,0.0046
1654.00,0.0046
1653.00,0.0045
1652.00,0.0043
1651.00,0.0043
1650.00,0.0042
1649.00,0.0042
1648.00,0.0041
1647.00,0.0041
1646.00,0.0041
1645.00,0.0041
1644.00,0.0041
1643.00,0.0040
1642.00,0.0040
1641.00,0.0040
1640.00,0.0040
1639.00,0.0040
1638.00,0.0040
1637.00,0.0040
1636.00,0.0040
1635.00,0.0040
1634.00,0.0040
1633.00,0.0040
1632.00,0.0040
1631.00,0.0041
1630.00,0.0041
1629.00,0.0041
1628.00,0.0042
1627.00,0.0042
1626.00,0.0043
1625.00,0.0043
1624.00,0.0043
1623.00,0.0044
1622.00,0.0045
1621.00,0.0046
1620.00,0.0047
1619.00,0.0048
1618.00,0.0049
1617.00,0.0051
1616.00,0.0053
1615.00,0.0056
1614.00,0.0059
1613.00,0.0063
1612.00,0.0069
1611.00,0.0078
1610.00,0.0089
1609.00,0.0105
1608.00,0.0126
1607.00,0.0152
1606.00,0.0183
1605.00,0.0217
1604.00,0.0251
1603.00,0.0282
1602.00,0.0303
1601.00,0.0309
1600.00,0.0299
1599.00,0.0277
1598.00,0.0247
1597.00,0.0215
1596.00,0.0185
1595.00,0.0160
1594.00,0.0140
1593.00,0.0125
1592.00,0.0113
1591.00,0.0105
1590.00,0.0098
1589.00,0.0095
1588.00,0.0097
1587.00,0.0103
1586.00,0.0112
1585.00,0.0122
1584.00,0.0131
1583.00,0.0133
1582.00,0.0127
1581.00,0.0115
1580.00,0.0102
1579.00,0.0089
1578.00,0.0078
1577.00,0.0069
1576.00,0.0061
1575.00,0.0056
1574.00,0.0052
1573.00,0.0050
1572.00,0.0048
1571.00,0.0047
1570.00,0.0045
1569.00,0.0043
1568.00,0.0042
1567.00,0.0041
1566.00,0.0040
1565.00,0.0040
1564.00,0.0040
1563.00,0.0040
1562.00,0.0040
1561.00,0.0040
1560.00,0.0040
1559.00,0.0040
1558.00,0.0040
1557.00,0.0040
1556.00,0.0041
1555.00,0.0043
1554.00,0.0044
1553.00,0.0046
1552.00,0.0047
1551.00,0.0048
1550.00,0.0049
1549.00,0.0051
1548.00,0.0052
1547.00,0.0053
1546.00,0.0054
1545.00,0.0055
1544.00,0.0055
1543.00,0.0055
1542.00,0.0055
1541.00,0.0054
1540.00,0.0053
1539.00,0.0053
1538.00,0.0052
1537.00,0.0052
1536.00,0.0051
1535.00,0.0050
1534.00,0.0048
1533.00,0.0046
1532.00,0.0045
1531.00,0.0044
1530.00,0.0044
1529.00,0.0043
1528.00,0.0042
1527.00,0.0041
1526.00,0.0040
1525.00,0.0039
1524.00,0.0038
1523.00,0.0039
1522.00,0.0039
1521.00,0.0039
1520.00,0.0039
1519.00,0.0039
1518.00,0.0040
1517.00,0.0040
1516.00,0.0041
1515.00,0.0042
1514.00,0.0043
1513.00,0.0044
1512.00,0.0045
1511.00,0.0047
1510.00,0.0048
1509.00,0.0048
1508.00,0.0050
1507.00,0.0053
1506.00,0.0059
1505.00,0.0065
1504.00,0.0072
1503.00,0.0080
1502.00,0.0092
1501.00,0.0108
1500.00,0.0133
1499.00,0.0172
1498.00,0.0235
1497.00,0.0335
1496.00,0.0465
1495.00,0.0599
1494.00,0.0704
1493.00,0.0762
1492.00,0.0759
1491.00,0.0690
1490.00,0.0572
1489.00,0.0448
1488.00,0.0351
1487.00,0.0283
1486.00,0.0234
1485.00,0.0197
1484.00,0.0169
1483.00,0.0147
1482.00,0.0128
1481.00,0.0114
1480.00,0.0104
1479.00,0.0097
1478.00,0.0092
1477.00,0.0088
1476.00,0.0085
1475.00,0.0083
1474.00,0.0081
1473.00,0.0080
1472.00,0.0080
1471.00,0.0080
1470.00,0.0081
1469.00,0.0083
1468.00,0.0085
1467.00,0.0087
1466.00,0.0090
1465.00,0.0093
1464.00,0.0099
1463.00,0.0105
1462.00,0.0113
1461.00,0.0124
1460.00,0.0139
1459.00,0.0165
1458.00,0.0221
1457.00,0.0323
1456.00,0.0453
1455.00,0.0573
1454.00,0.0672
1453.00,0.0744
1452.00,0.0777
1451.00,0.0766
1450.00,0.0721
1449.00,0.0660
1448.00,0.0597
1447.00,0.0541
1446.00,0.0496
1445.00,0.0459
1444.00,0.0423
1443.00,0.0388
1442.00,0.0356
1441.00,0.0328
1440.00,0.0303
1439.00,0.0280
1438.00,0.0257
1437.00,0.0231
1436.00,0.0205
1435.00,0.0182
1434.00,0.0165
1433.00,0.0151
1432.00,0.0138
1431.00,0.0125
1430.00,0.0115
1429.00,0.0106
1428.00,0.0099
1427.00,0.0094
1426.00,0.0090
1425.00,0.0086
1424.00,0.0083
1423.00,0.0081
1422.00,0.0079
1421.00,0.0078
1420.00,0.0077
1419.00,0.0075
1418.00,0.0073
1417.00,0.0072
1416.00,0.0071
1415.00,0.0071
1414.00,0.0071
1413.00,0.0070
1412.00,0.0070
1411.00,0.0070
1410.00,0.0069
1409.00,0.0069
1408.00,0.0069
1407.00,0.0068
1406.00,0.0069
1405.00,0.0069
1404.00,0.0069
1403.00,0.0069
1402.00,0.0069
1401.00,0.0070
1400.00,0.0070
1399.00,0.0071
1398.00,0.0072
1397.00,0.0073
1396.00,0.0075
1395.00,0.0077
1394.00,0.0080
1393.00,0.0084
1392.00,0.0088
1391.00,0.0092
1390.00,0.0097
1389.00,0.0102
1388.00,0.0107
1387.00,0.0113
1386.00,0.0119
1385.00,0.0124
1384.00,0.0129
1383.00,0.0134
1382.00,0.0139
1381.00,0.0143
1380.00,0.0148
1379.00,0.0152
1378.00,0.0157
1377.00,0.0161
1376.00,0.0165
1375.00,0.0168
1374.00,0.0171
1373.00,0.0173
1372.00,0.0173
1371.00,0.0173
1370.00,0.0173
1369.00,0.0172
1368.00,0.0171
1367.00,0.0170
1366.00,0.0169
1365.00,0.0168
1364.00,0.0166
1363.00,0.0164
1362.00,0.0162
1361.00,0.0159
1360.00,0.0157
1359.00,0.0155
1358.00,0.0152
1357.00,0.0151
1356.00,0.0149
1355.00,0.0148
1354.00,0.0147
1353.00,0.0146
1352.00,0.0146
1351.00,0.0146
1350.00,0.0145
1349.00,0.0145
1348.00,0.0144
1347.00,0.0143
1346.00,0.0141
1345.00,0.0139
1344.00,0.0137
1343.00,0.0134
1342.00,0.0131
1341.00,0.0129
1340.00,0.0127
1339.00,0.0126
1338.00,0.0126
1337.00,0.0127
1336.00,0.0129
1335.00,0.0131
1334.00,0.0134
1333.00,0.0138
1332.00,0.0141
1331.00,0.0145
1330.00,0.0147
1329.00,0.0149
1328.00,0.0149
1327.00,0.0148
1326.00,0.0146
1325.00,0.0144
1324.00,0.0142
1323.00,0.0140
1322.00,0.0139
1321.00,0.0138
1320.00,0.0137
1319.00,0.0137
1318.00,0.0138
1317.00,0.0139
1316.00,0.0141
1315.00,0.0143
1314.00,0.0144
1313.00,0.0145
1312.00,0.0145
1311.00,0.0145
1310.00,0.0144
1309.00,0.0142
1308.00,0.0140
1307.00,0.0138
1306.00,0.0136
1305.00,0.0133
1304.00,0.0131
1303.00,0.0128
1302.00,0.0126
1301.00,0.0123
1300.00,0.0121
1299.00,0.0119
1298.00,0.0118
1297.00,0.0117
1296.00,0.0116
1295.00,0.0116
1294.00,0.0116
1293.00,0.0115
1292.00,0.0114
1291.00,0.0113
1290.00,0.0112
1289.00,0.0111
1288.00,0.0110
1287.00,0.0109
1286.00,0.0109
1285.00,0.0108
1284.00,0.0108
1283.00,0.0108
1282.00,0.0108
1281.00,0.0107
1280.00,0.0107
1279.00,0.0105
1278.00,0.0104
1277.00,0.0102
1276.00,0.0100
1275.00,0.0097
1274.00,0.0095
1273.00,0.0094
1272.00,0.0092
1271.00,0.0091
1270.00,0.0089
1269.00,0.0088
1268.00,0.0087
1267.00,0.0086
1266.00,0.0086
1265.00,0.0085
1264.00,0.0084
1263.00,0.0083
1262.00,0.0083
1261.00,0.0082
1260.00,0.0082
1259.00,0.0082
1258.00,0.0082
1257.00,0.0083
1256.00,0.0083
1255.00,0.0083
1254.00,0.0084
1253.00,0.0084
1252.00,0.0084
1251.00,0.0085
1250.00,0.0085
1249.00,0.0086
1248.00,0.0086
1247.00,0.0087
1246.00,0.0087
1245.00,0.0087
1244.00,0.0087
1243.00,0.0087
1242.00,0.0086
1241.00,0.0086
1240.00,0.0086
1239.00,0.0086
1238.00,0.0085
1237.00,0.0085
1236.00,0.0084
1235.00,0.0084
1234.00,0.0084
1233.00,0.0083
1232.00,0.0083
1231.00,0.0084
1230.00,0.0084
1229.00,0.0085
1228.00,0.0085
1227.00,0.0085
1226.00,0.0085
1225.00,0.0086
1224.00,0.0086
1223.00,0.0086
1222.00,0.0086
1221.00,0.0086
1220.00,0.0086
1219.00,0.0086
1218.00,0.0087
1217.00,0.0087
1216.00,0.0088
1215.00,0.0089
1214.00,0.0090
1213.00,0.0091
1212.00,0.0093
1211.00,0.0094
1210.00,0.0096
1209.00,0.0098
1208.00,0.0100
1207.00,0.0102
1206.00,0.0105
1205.00,0.0108
1204.00,0.0111
1203.00,0.0114
1202.00,0.0117
1201.00,0.0120
1200.00,0.0123
1199.00,0.0126
1198.00,0.0127
1197.00,0.0129
1196.00,0.0129
1195.00,0.0130
1194.00,0.0130
1193.00,0.0130
1192.00,0.0131
1191.00,0.0132
1190.00,0.0133
1189.00,0.0135
1188.00,0.0138
1187.00,0.0142
1186.00,0.0148
1185.00,0.0155
1184.00,0.0163
1183.00,0.0170
1182.00,0.0175
1181.00,0.0176
1180.00,0.0172
1179.00,0.0165
1178.00,0.0154
1177.00,0.0143
1176.00,0.0133
1175.00,0.0125
1174.00,0.0119
1173.00,0.0115
1172.00,0.0112
1171.00,0.0110
1170.00,0.0109
1169.00,0.0108
1168.00,0.0108
1167.00,0.0107
1166.00,0.0108
1165.00,0.0108
1164.00,0.0110
1163.00,0.0112
1162.00,0.0116
1161.00,0.0122
1160.00,0.0129
1159.00,0.0139
1158.00,0.0151
1157.00,0.0162
1156.00,0.0172
1155.00,0.0177
1154.00,0.0177
1153.00,0.0170
1152.00,0.0160
1151.00,0.0146
1150.00,0.0133
1149.00,0.0122
1148.00,0.0112
1147.00,0.0105
1146.00,0.0099
1145.00,0.0095
1144.00,0.0092
1143.00,0.0089
1142.00,0.0086
1141.00,0.0084
1140.00,0.0081
1139.00,0.0080
1138.00,0.0078
1137.00,0.0077
1136.00,0.0077
1135.00,0.0076
1134.00,0.0076
1133.00,0.0076
1132.00,0.0076
1131.00,0.0076
1130.00,0.0076
1129.00,0.0076
1128.00,0.0076
1127.00,0.0076
1126.00,0.0077
1125.00,0.0077
1124.00,0.0079
1123.00,0.0080
1122.00,0.0082
1121.00,0.0084
1120.00,0.0087
1119.00,0.0089
1118.00,0.0092
1117.00,0.0095
1116.00,0.0097
1115.00,0.0100
1114.00,0.0102
1113.00,0.0103
1112.00,0.0103
1111.00,0.0103
1110.00,0.0103
1109.00,0.0103
1108.00,0.0103
1107.00,0.0102
1106.00,0.0101
1105.00,0.0101
1104.00,0.0101
1103.00,0.0101
1102.00,0.0102
1101.00,0.0103
1100.00,0.0104
1099.00,0.0105
1098.00,0.0106
1097.00,0.0108
1096.00,0.0110
1095.00,0.0111
1094.00,0.0113
1093.00,0.0115
1092.00,0.0116
1091.00,0.0118
1090.00,0.0120
1089.00,0.0122
1088.00,0.0124
1087.00,0.0127
1086.00,0.0131
1085.00,0.0135
1084.00,0.0140
1083.00,0.0145
1082.00,0.0150
1081.00,0.0155
1080.00,0.0160
1079.00,0.0165
1078.00,0.0171
1077.00,0.0177
1076.00,0.0185
1075.00,0.0194
1074.00,0.0204
1073.00,0.0213
1072.00,0.0222
1071.00,0.0229
1070.00,0.0234
1069.00,0.0235
1068.00,0.0234
1067.00,0.0231
1066.00,0.0225
1065.00,0.0217
1064.00,0.0208
1063.00,0.0199
1062.00,0.0191
1061.00,0.0183
1060.00,0.0176
1059.00,0.0169
1058.00,0.0164
1057.00,0.0159
1056.00,0.0154
1055.00,0.0150
1054.00,0.0146
1053.00,0.0143
1052.00,0.0139
1051.00,0.0136
1050.00,0.0133
1049.00,0.0130
1048.00,0.0128
1047.00,0.0126
1046.00,0.0125
1045.00,0.0124
1044.00,0.0123
1043.00,0.0123
1042.00,0.0124
1041.00,0.0126
1040.00,0.0130
1039.00,0.0136
1038.00,0.0145
1037.00,0.0159
1036.00,0.0178
1035.00,0.0205
1034.00,0.0238
1033.00,0.0275
1032.00,0.0313
1031.00,0.0348
1030.00,0.0377
1029.00,0.0395
1028.00,0.0402
1027.00,0.0395
1026.00,0.0376
1025.00,0.0350
1024.00,0.0322
1023.00,0.0296
1022.00,0.0273
1021.00,0.0255
1020.00,0.0239
1019.00,0.0226
1018.00,0.0214
1017.00,0.0204
1016.00,0.0195
1015.00,0.0187
1014.00,0.0180
1013.00,0.0175
1012.00,0.0170
1011.00,0.0166
1010.00,0.0163
1009.00,0.0162
1008.00,0.0162
1007.00,0.0165
1006.00,0.0169
1005.00,0.0173
1004.00,0.0177
1003.00,0.0177
1002.00,0.0173
1001.00,0.0165
1000.00,0.0155
999.00,0.0146
998.00,0.0138
997.00,0.0132
996.00,0.0129
995.00,0.0127
994.00,0.0127
993.00,0.0127
992.00,0.0128
991.00,0.0129
990.00,0.0130
989.00,0.0132
988.00,0.0135
987.00,0.0138
986.00,0.0142
985.00,0.0147
984.00,0.0151
983.00,0.0155
982.00,0.0158
981.00,0.0160
980.00,0.0160
979.00,0.0159
978.00,0.0157
977.00,0.0155
976.00,0.0151
975.00,0.0148
974.00,0.0146
973.00,0.0145
972.00,0.0146
971.00,0.0149
970.00,0.0153
969.00,0.0158
968.00,0.0164
967.00,0.0169
966.00,0.0173
965.00,0.0175
964.00,0.0175
963.00,0.0173
962.00,0.0169
961.00,0.0163
960.00,0.0156
959.00,0.0149
958.00,0.0142
957.00,0.0137
956.00,0.0133
955.00,0.0130
954.00,0.0128
953.00,0.0127
952.00,0.0126
951.00,0.0127
950.00,0.0128
949.00,0.0130
948.00,0.0133
947.00,0.0135
946.00,0.0137
945.00,0.0139
944.00,0.0140
943.00,0.0140
942.00,0.0139
941.00,0.0138
940.00,0.0135
939.00,0.0132
938.00,0.0128
937.00,0.0124
936.00,0.0120
935.00,0.0115
934.00,0.0111
933.00,0.0107
932.00,0.0104
931.00,0.0102
930.00,0.0100
929.00,0.0099
928.00,0.0099
927.00,0.0099
926.00,0.0101
925.00,0.0103
924.00,0.0105
923.00,0.0107
922.00,0.0109
921.00,0.0112
920.00,0.0116
919.00,0.0121
918.00,0.0127
917.00,0.0135
916.00,0.0145
915.00,0.0158
914.00,0.0173
913.00,0.0190
912.00,0.0207
911.00,0.0226
910.00,0.0243
909.00,0.0258
908.00,0.0270
907.00,0.0276
906.00,0.0276
905.00,0.0271
904.00,0.0260
903.00,0.0244
902.00,0.0226
901.00,0.0206
900.00,0.0185
899.00,0.0167
898.00,0.0150
897.00,0.0136
896.00,0.0125
895.00,0.0117
894.00,0.0111
893.00,0.0107
892.00,0.0103
891.00,0.0100
890.00,0.0097
889.00,0.0094
888.00,0.0091
887.00,0.0089
886.00,0.0087
885.00,0.0085
884.00,0.0083
883.00,0.0081
882.00,0.0080
881.00,0.0079
880.00,0.0079
879.00,0.0078
878.00,0.0077
877.00,0.0076
876.00,0.0075
875.00,0.0075
874.00,0.0074
873.00,0.0073
872.00,0.0073
871.00,0.0072
870.00,0.0072
869.00,0.0072
868.00,0.0072
867.00,0.0072
866.00,0.0072
865.00,0.0071
864.00,0.0070
863.00,0.0070
862.00,0.0069
861.00,0.0069
860.00,0.0069
859.00,0.0070
858.00,0.0071
857.00,0.0073
856.00,0.0075
855.00,0.0077
854.00,0.0080
853.00,0.0082
852.00,0.0086
851.00,0.0090
850.00,0.0096
849.00,0.0103
848.00,0.0111
847.00,0.0119
846.00,0.0127
845.00,0.0134
844.00,0.0139
843.00,0.0143
842.00,0.0145
841.00,0.0144
840.00,0.0141
839.00,0.0137
838.00,0.0130
837.00,0.0122
836.00,0.0113
835.00,0.0104
834.00,0.0096
833.00,0.0089
832.00,0.0083
831.00,0.0078
830.00,0.0075
829.00,0.0072
828.00,0.0070
827.00,0.0069
826.00,0.0068
825.00,0.0067
824.00,0.0067
823.00,0.0067
822.00,0.0068
821.00,0.0068
820.00,0.0068
819.00,0.0068
818.00,0.0067
817.00,0.0067
816.00,0.0067
815.00,0.0067
814.00,0.0068
813.00,0.0069
812.00,0.0070
811.00,0.0071
810.00,0.0072
809.00,0.0073
808.00,0.0074
807.00,0.0074
806.00,0.0074
805.00,0.0074
804.00,0.0074
803.00,0.0075
802.00,0.0077
801.00,0.0079
800.00,0.0082
799.00,0.0085
798.00,0.0089
797.00,0.0093
796.00,0.0097
795.00,0.0101
794.00,0.0106
793.00,0.0111
792.00,0.0118
791.00,0.0125
790.00,0.0132
789.00,0.0141
788.00,0.0149
787.00,0.0159
786.00,0.0168
785.00,0.0179
784.00,0.0190
783.00,0.0202
782.00,0.0215
781.00,0.0230
780.00,0.0247
779.00,0.0267
778.00,0.0291
777.00,0.0319
776.00,0.0349
775.00,0.0383
774.00,0.0418
773.00,0.0456
772.00,0.0498
771.00,0.0542
770.00,0.0589
769.00,0.0637
768.00,0.0686
767.00,0.0734
766.00,0.0781
765.00,0.0828
764.00,0.0874
763.00,0.0922
762.00,0.0970
761.00,0.1019
760.00,0.1067
759.00,0.1111
758.00,0.1149
757.00,0.1177
756.00,0.1194
755.00,0.1202
754.00,0.1203
753.00,0.1200
752.00,0.1196
751.00,0.1193
750.00,0.1191
749.00,0.1189
748.00,0.1181
747.00,0.1161
746.00,0.1125
745.00,0.1071
744.00,0.1002
743.00,0.0923
742.00,0.0840
741.00,0.0760
740.00,0.0685
739.00,0.0616
738.00,0.0553
737.00,0.0494
736.00,0.0438
735.00,0.0384
734.00,0.0334
733.00,0.0289
732.00,0.0250
731.00,0.0219
730.00,0.0195
729.00,0.0178
728.00,0.0166
727.00,0.0157
726.00,0.0150
725.00,0.0145
724.00,0.0141
723.00,0.0138
722.00,0.0137
721.00,0.0136
720.00,0.0137
719.00,0.0139
718.00,0.0144
717.00,0.0151
716.00,0.0161
715.00,0.0175
714.00,0.0194
713.00,0.0222
712.00,0.0259
711.00,0.0311
710.00,0.0382
709.00,0.0475
708.00,0.0594
707.00,0.0742
706.00,0.0919
705.00,0.1128
704.00,0.1366
703.00,0.1634
702.00,0.1931
701.00,0.2255
700.00,0.2600
699.00,0.2961
698.00,0.3324
697.00,0.3660
696.00,0.3911
695.00,0.4005
694.00,0.3893
693.00,0.3585
692.00,0.3154
691.00,0.2695
690.00,0.2276
689.00,0.1925
688.00,0.1644
687.00,0.1425
686.00,0.1255
685.00,0.1122
684.00,0.1014
683.00,0.0925
682.00,0.0850
681.00,0.0786
680.00,0.0732
679.00,0.0687
678.00,0.0648
677.00,0.0615
676.00,0.0586
675.00,0.0560
674.00,0.0538
673.00,0.0517
672.00,0.0500
671.00,0.0485
670.00,0.0470
669.00,0.0456
668.00,0.0438
667.00,0.0419
666.00,0.0402
665.00,0.0387
664.00,0.0371
663.00,0.0355
662.00,0.0340
661.00,0.0324
660.00,0.0309
659.00,0.0296
658.00,0.0283
657.00,0.0271
656.00,0.0261
655.00,0.0251
654.00,0.0242
653.00,0.0233
652.00,0.0225
651.00,0.0218
650.00,0.0211
649.00,0.0206
648.00,0.0201
647.00,0.0197
646.00,0.0193
645.00,0.0190
644.00,0.0187
643.00,0.0184
642.00,0.0182
641.00,0.0182
640.00,0.0183
639.00,0.0186
638.00,0.0189
637.00,0.0193
636.00,0.0198
635.00,0.0203
634.00,0.0209
633.00,0.0214
632.00,0.0218
631.00,0.0222
630.00,0.0226
629.00,0.0229
628.00,0.0232
627.00,0.0234
626.00,0.0236
625.00,0.0239
624.00,0.0243
623.00,0.0248
622.00,0.0253
621.00,0.0256
620.00,0.0255
619.00,0.0250
618.00,0.0242
617.00,0.0234
616.00,0.0227
615.00,0.0221
614.00,0.0217
613.00,0.0213
612.00,0.0209
611.00,0.0205
610.00,0.0202
609.00,0.0200
608.00,0.0199
607.00,0.0198
606.00,0.0198
605.00,0.0198
604.00,0.0198
603.00,0.0199
602.00,0.0199
601.00,0.0201
600.00,0.0203
599.00,0.0206
598.00,0.0209
597.00,0.0213
596.00,0.0215
595.00,0.0217
594.00,0.0219
593.00,0.0221
592.00,0.0224
591.00,0.0226
590.00,0.0230
589.00,0.0234
588.00,0.0238
587.00,0.0242
586.00,0.0247
585.00,0.0251
584.00,0.0256
583.00,0.0263
582.00,0.0271
581.00,0.0280
580.00,0.0290
579.00,0.0301
578.00,0.0313
577.00,0.0327
576.00,0.0343
575.00,0.0359
574.00,0.0375
573.00,0.0392
572.00,0.0409
571.00,0.0426
570.00,0.0443
569.00,0.0458
568.00,0.0473
567.00,0.0487
566.00,0.0501
565.00,0.0517
564.00,0.0533
563.00,0.0549
562.00,0.0565
561.00,0.0580
560.00,0.0596
559.00,0.0611
558.00,0.0627
557.00,0.0643
556.00,0.0661
555.00,0.0680
554.00,0.0698
553.00,0.0718
552.00,0.0739
551.00,0.0760
550.00,0.0783
549.00,0.0809
548.00,0.0840
547.00,0.0874
546.00,0.0911
545.00,0.0950
544.00,0.0992
543.00,0.1034
542.00,0.1073
541.00,0.1108
540.00,0.1136
539.00,0.1153
538.00,0.1157
537.00,0.1147
536.00,0.1125
535.00,0.1090
534.00,0.1043
533.00,0.0988
532.00,0.0928
531.00,0.0867
530.00,0.0807
529.00,0.0752
528.00,0.0701
527.00,0.0652
526.00,0.0605
525.00,0.0563
524.00,0.0530
523.00,0.0503
522.00,0.0479
521.00,0.0457
520.00,0.0437
519.00,0.0419
518.00,0.0402
517.00,0.0386
516.00,0.0372
515.00,0.0360
514.00,0.0349
513.00,0.0339
512.00,0.0330
511.00,0.0321
510.00,0.0311
509.00,0.0302
508.00,0.0292
507.00,0.0282
506.00,0.0272
505.00,0.0264
504.00,0.0256
503.00,0.0248
502.00,0.0240
501.00,0.0233
500.00,0.0228
499.00,0.0224
498.00,0.0220
497.00,0.0217
496.00,0.0214
495.00,0.0210
494.00,0.0205
493.00,0.0199
492.00,0.0193
491.00,0.0189
490.00,0.0187
489.00,0.0187
488.00,0.0187
487.00,0.0186
486.00,0.0185
485.00,0.0183
484.00,0.0181
483.00,0.0178
482.00,0.0174
481.00,0.0169
480.00,0.0166
479.00,0.0164
478.00,0.0163
477.00,0.0162
476.00,0.0161
475.00,0.0160
474.00,0.0160
473.00,0.0159
472.00,0.0156
471.00,0.0153
470.00,0.0152
469.00,0.0152
468.00,0.0151
467.00,0.0150
466.00,0.0149
465.00,0.0149
464.00,0.0148
463.00,0.0148
462.00,0.0147
461.00,0.0145
460.00,0.0143
459.00,0.0141
458.00,0.0140
457.00,0.0139
456.00,0.0137
455.00,0.0134
454.00,0.0133
453.00,0.0134
452.00,0.0136
451.00,0.0140
450.00,0.0141
449.00,0.0140
448.00,0.0137
447.00,0.0132
446.00,0.0129
445.00,0.0129
444.00,0.0133
443.00,0.0138
442.00,0.0141
441.00,0.0139
440.00,0.0133
439.00,0.0127
438.00,0.0124
437.00,0.0125
436.00,0.0126
435.00,0.0126
434.00,0.0125
433.00,0.0122
432.00,0.0119
431.00,0.0117
430.00,0.0117
429.00,0.0116
428.00,0.0114
427.00,0.0111
426.00,0.0109
425.00,0.0106
424.00,0.0104
423.00,0.0102
422.00,0.0103
421.00,0.0108
420.00,0.0113
419.00,0.0116
418.00,0.0117
417.00,0.0116
416.00,0.0114
415.00,0.0114
414.00,0.0114
413.00,0.0114
412.00,0.0112
411.00,0.0113
410.00,0.0118
409.00,0.0127
408.00,0.0136
407.00,0.0143
406.00,0.0145
405.00,0.0142
404.00,0.0134
403.00,0.0122
402.00,0.0111
401.00,0.0100
400.00,0.0089
