Created as New Dataset,Sample 665 By YargerLab Date Wednesday, June 11 2025
cm-1,A
4000.00,0.0005
3999.00,0.0005
3998.00,0.0004
3997.00,0.0004
3996.00,0.0004
3995.00,0.0004
3994.00,0.0004
3993.00,0.0004
3992.00,0.0004
3991.00,0.0005
3990.00,0.0006
3989.00,0.0007
3988.00,0.0007
3987.00,0.0007
3986.00,0.0006
3985.00,0.0006
3984.00,0.0005
3983.00,0.0004
3982.00,0.0004
3981.00,0.0005
3980.00,0.0005
3979.00,0.0006
3978.00,0.0006
3977.00,0.0005
3976.00,0.0005
3975.00,0.0004
3974.00,0.0004
3973.00,0.0004
3972.00,0.0005
3971.00,0.0005
3970.00,0.0006
3969.00,0.0006
3968.00,0.0006
3967.00,0.0005
3966.00,0.0005
3965.00,0.0005
3964.00,0.0005
3963.00,0.0005
3962.00,0.0005
3961.00,0.0005
3960.00,0.0004
3959.00,0.0004
3958.00,0.0004
3957.00,0.0004
3956.00,0.0004
3955.00,0.0004
3954.00,0.0004
3953.00,0.0004
3952.00,0.0004
3951.00,0.0005
3950.00,0.0005
3949.00,0.0005
3948.00,0.0005
3947.00,0.0005
3946.00,0.0004
3945.00,0.0003
3944.00,0.0002
3943.00,0.0003
3942.00,0.0004
3941.00,0.0005
3940.00,0.0005
3939.00,0.0005
3938.00,0.0005
3937.00,0.0004
3936.00,0.0004
3935.00,0.0004
3934.00,0.0004
3933.00,0.0005
3932.00,0.0005
3931.00,0.0006
3930.00,0.0006
3929.00,0.0006
3928.00,0.0005
3927.00,0.0004
3926.00,0.0003
3925.00,0.0003
3924.00,0.0004
3923.00,0.0004
3922.00,0.0005
3921.00,0.0005
3920.00,0.0005
3919.00,0.0005
3918.00,0.0005
3917.00,0.0005
3916.00,0.0005
3915.00,0.0005
3914.00,0.0005
3913.00,0.0006
3912.00,0.0006
3911.00,0.0006
3910.00,0.0006
3909.00,0.0006
3908.00,0.0006
3907.00,0.0006
3906.00,0.0005
3905.00,0.0005
3904.00,0.0004
3903.00,0.0003
3902.00,0.0002
3901.00,0.0002
3900.00,0.0002
3899.00,0.0003
3898.00,0.0004
3897.00,0.0005
3896.00,0.0005
3895.00,0.0004
3894.00,0.0003
3893.00,0.0003
3892.00,0.0002
3891.00,0.0003
3890.00,0.0003
3889.00,0.0004
3888.00,0.0003
3887.00,0.0003
3886.00,0.0002
3885.00,0.0003
3884.00,0.0003
3883.00,0.0003
3882.00,0.0003
3881.00,0.0003
3880.00,0.0003
3879.00,0.0004
3878.00,0.0005
3877.00,0.0005
3876.00,0.0005
3875.00,0.0005
3874.00,0.0005
3873.00,0.0005
3872.00,0.0005
3871.00,0.0005
3870.00,0.0005
3869.00,0.0004
3868.00,0.0004
3867.00,0.0003
3866.00,0.0003
3865.00,0.0002
3864.00,0.0003
3863.00,0.0004
3862.00,0.0004
3861.00,0.0004
3860.00,0.0005
3859.00,0.0005
3858.00,0.0005
3857.00,0.0006
3856.00,0.0005
3855.00,0.0004
3854.00,0.0003
3853.00,0.0003
3852.00,0.0004
3851.00,0.0004
3850.00,0.0004
3849.00,0.0003
3848.00,0.0003
3847.00,0.0003
3846.00,0.0003
3845.00,0.0003
3844.00,0.0003
3843.00,0.0003
3842.00,0.0003
3841.00,0.0003
3840.00,0.0003
3839.00,0.0003
3838.00,0.0003
3837.00,0.0002
3836.00,0.0002
3835.00,0.0002
3834.00,0.0003
3833.00,0.0005
3832.00,0.0005
3831.00,0.0005
3830.00,0.0005
3829.00,0.0004
3828.00,0.0004
3827.00,0.0004
3826.00,0.0004
3825.00,0.0005
3824.00,0.0005
3823.00,0.0004
3822.00,0.0002
3821.00,0.0001
3820.00,0.0001
3819.00,0.0001
3818.00,0.0001
3817.00,0.0001
3816.00,0.0001
3815.00,0.0001
3814.00,0.0002
3813.00,0.0003
3812.00,0.0004
3811.00,0.0004
3810.00,0.0005
3809.00,0.0005
3808.00,0.0004
3807.00,0.0003
3806.00,0.0003
3805.00,0.0003
3804.00,0.0003
3803.00,0.0003
3802.00,0.0003
3801.00,0.0004
3800.00,0.0005
3799.00,0.0005
3798.00,0.0004
3797.00,0.0003
3796.00,0.0002
3795.00,0.0002
3794.00,0.0003
3793.00,0.0003
3792.00,0.0004
3791.00,0.0005
3790.00,0.0006
3789.00,0.0007
3788.00,0.0007
3787.00,0.0006
3786.00,0.0005
3785.00,0.0005
3784.00,0.0004
3783.00,0.0004
3782.00,0.0004
3781.00,0.0004
3780.00,0.0005
3779.00,0.0005
3778.00,0.0006
3777.00,0.0006
3776.00,0.0006
3775.00,0.0006
3774.00,0.0006
3773.00,0.0006
3772.00,0.0006
3771.00,0.0006
3770.00,0.0006
3769.00,0.0007
3768.00,0.0007
3767.00,0.0006
3766.00,0.0005
3765.00,0.0005
3764.00,0.0005
3763.00,0.0004
3762.00,0.0004
3761.00,0.0003
3760.00,0.0003
3759.00,0.0003
3758.00,0.0003
3757.00,0.0004
3756.00,0.0004
3755.00,0.0005
3754.00,0.0005
3753.00,0.0006
3752.00,0.0006
3751.00,0.0005
3750.00,0.0004
3749.00,0.0003
3748.00,0.0002
3747.00,0.0001
3746.00,0.0001
3745.00,0.0001
3744.00,0.0003
3743.00,0.0005
3742.00,0.0006
3741.00,0.0006
3740.00,0.0005
3739.00,0.0005
3738.00,0.0005
3737.00,0.0005
3736.00,0.0005
3735.00,0.0003
3734.00,0.0001
3733.00,-0.0000
3732.00,-0.0000
3731.00,0.0001
3730.00,0.0003
3729.00,0.0004
3728.00,0.0006
3727.00,0.0007
3726.00,0.0007
3725.00,0.0006
3724.00,0.0005
3723.00,0.0003
3722.00,0.0002
3721.00,0.0002
3720.00,0.0002
3719.00,0.0003
3718.00,0.0003
3717.00,0.0004
3716.00,0.0005
3715.00,0.0006
3714.00,0.0006
3713.00,0.0006
3712.00,0.0006
3711.00,0.0005
3710.00,0.0004
3709.00,0.0003
3708.00,0.0003
3707.00,0.0004
3706.00,0.0004
3705.00,0.0005
3704.00,0.0005
3703.00,0.0004
3702.00,0.0004
3701.00,0.0004
3700.00,0.0005
3699.00,0.0007
3698.00,0.0007
3697.00,0.0007
3696.00,0.0006
3695.00,0.0006
3694.00,0.0005
3693.00,0.0004
3692.00,0.0003
3691.00,0.0003
3690.00,0.0003
3689.00,0.0002
3688.00,0.0001
3687.00,0.0001
3686.00,0.0002
3685.00,0.0002
3684.00,0.0002
3683.00,0.0002
3682.00,0.0002
3681.00,0.0003
3680.00,0.0004
3679.00,0.0005
3678.00,0.0006
3677.00,0.0005
3676.00,0.0004
3675.00,0.0002
3674.00,0.0001
3673.00,0.0000
3672.00,-0.0000
3671.00,-0.0000
3670.00,0.0001
3669.00,0.0002
3668.00,0.0003
3667.00,0.0004
3666.00,0.0005
3665.00,0.0005
3664.00,0.0004
3663.00,0.0004
3662.00,0.0004
3661.00,0.0005
3660.00,0.0005
3659.00,0.0006
3658.00,0.0006
3657.00,0.0006
3656.00,0.0006
3655.00,0.0006
3654.00,0.0006
3653.00,0.0005
3652.00,0.0003
3651.00,0.0001
3650.00,-0.0000
3649.00,0.0000
3648.00,0.0001
3647.00,0.0002
3646.00,0.0003
3645.00,0.0004
3644.00,0.0004
3643.00,0.0004
3642.00,0.0003
3641.00,0.0003
3640.00,0.0003
3639.00,0.0004
3638.00,0.0004
3637.00,0.0004
3636.00,0.0004
3635.00,0.0004
3634.00,0.0005
3633.00,0.0006
3632.00,0.0007
3631.00,0.0008
3630.00,0.0008
3629.00,0.0008
3628.00,0.0008
3627.00,0.0008
3626.00,0.0008
3625.00,0.0007
3624.00,0.0007
3623.00,0.0008
3622.00,0.0008
3621.00,0.0008
3620.00,0.0007
3619.00,0.0005
3618.00,0.0004
3617.00,0.0004
3616.00,0.0004
3615.00,0.0004
3614.00,0.0003
3613.00,0.0002
3612.00,0.0001
3611.00,0.0001
3610.00,0.0001
3609.00,0.0002
3608.00,0.0003
3607.00,0.0004
3606.00,0.0005
3605.00,0.0005
3604.00,0.0005
3603.00,0.0005
3602.00,0.0006
3601.00,0.0006
3600.00,0.0006
3599.00,0.0005
3598.00,0.0005
3597.00,0.0004
3596.00,0.0003
3595.00,0.0002
3594.00,0.0002
3593.00,0.0003
3592.00,0.0003
3591.00,0.0003
3590.00,0.0004
3589.00,0.0004
3588.00,0.0005
3587.00,0.0005
3586.00,0.0005
3585.00,0.0004
3584.00,0.0004
3583.00,0.0004
3582.00,0.0004
3581.00,0.0005
3580.00,0.0006
3579.00,0.0006
3578.00,0.0006
3577.00,0.0006
3576.00,0.0007
3575.00,0.0007
3574.00,0.0007
3573.00,0.0006
3572.00,0.0006
3571.00,0.0006
3570.00,0.0006
3569.00,0.0006
3568.00,0.0006
3567.00,0.0005
3566.00,0.0004
3565.00,0.0004
3564.00,0.0004
3563.00,0.0005
3562.00,0.0005
3561.00,0.0006
3560.00,0.0006
3559.00,0.0006
3558.00,0.0007
3557.00,0.0007
3556.00,0.0008
3555.00,0.0009
3554.00,0.0009
3553.00,0.0009
3552.00,0.0008
3551.00,0.0007
3550.00,0.0007
3549.00,0.0007
3548.00,0.0008
3547.00,0.0008
3546.00,0.0008
3545.00,0.0008
3544.00,0.0007
3543.00,0.0007
3542.00,0.0008
3541.00,0.0008
3540.00,0.0009
3539.00,0.0010
3538.00,0.0011
3537.00,0.0011
3536.00,0.0011
3535.00,0.0011
3534.00,0.0010
3533.00,0.0010
3532.00,0.0009
3531.00,0.0009
3530.00,0.0009
3529.00,0.0009
3528.00,0.0008
3527.00,0.0008
3526.00,0.0008
3525.00,0.0008
3524.00,0.0008
3523.00,0.0009
3522.00,0.0011
3521.00,0.0012
3520.00,0.0013
3519.00,0.0013
3518.00,0.0012
3517.00,0.0011
3516.00,0.0010
3515.00,0.0009
3514.00,0.0009
3513.00,0.0009
3512.00,0.0009
3511.00,0.0009
3510.00,0.0009
3509.00,0.0008
3508.00,0.0008
3507.00,0.0008
3506.00,0.0008
3505.00,0.0008
3504.00,0.0008
3503.00,0.0008
3502.00,0.0008
3501.00,0.0008
3500.00,0.0008
3499.00,0.0008
3498.00,0.0008
3497.00,0.0008
3496.00,0.0008
3495.00,0.0008
3494.00,0.0009
3493.00,0.0009
3492.00,0.0010
3491.00,0.0010
3490.00,0.0010
3489.00,0.0010
3488.00,0.0011
3487.00,0.0011
3486.00,0.0011
3485.00,0.0011
3484.00,0.0010
3483.00,0.0010
3482.00,0.0010
3481.00,0.0010
3480.00,0.0011
3479.00,0.0012
3478.00,0.0012
3477.00,0.0012
3476.00,0.0011
3475.00,0.0010
3474.00,0.0010
3473.00,0.0011
3472.00,0.0011
3471.00,0.0011
3470.00,0.0011
3469.00,0.0011
3468.00,0.0010
3467.00,0.0010
3466.00,0.0010
3465.00,0.0011
3464.00,0.0011
3463.00,0.0011
3462.00,0.0011
3461.00,0.0011
3460.00,0.0011
3459.00,0.0012
3458.00,0.0012
3457.00,0.0012
3456.00,0.0012
3455.00,0.0013
3454.00,0.0013
3453.00,0.0013
3452.00,0.0013
3451.00,0.0013
3450.00,0.0014
3449.00,0.0014
3448.00,0.0014
3447.00,0.0014
3446.00,0.0014
3445.00,0.0014
3444.00,0.0014
3443.00,0.0014
3442.00,0.0014
3441.00,0.0014
3440.00,0.0013
3439.00,0.0013
3438.00,0.0012
3437.00,0.0012
3436.00,0.0012
3435.00,0.0012
3434.00,0.0012
3433.00,0.0013
3432.00,0.0013
3431.00,0.0012
3430.00,0.0012
3429.00,0.0012
3428.00,0.0013
3427.00,0.0013
3426.00,0.0014
3425.00,0.0015
3424.00,0.0015
3423.00,0.0015
3422.00,0.0014
3421.00,0.0014
3420.00,0.0013
3419.00,0.0013
3418.00,0.0013
3417.00,0.0013
3416.00,0.0013
3415.00,0.0013
3414.00,0.0014
3413.00,0.0014
3412.00,0.0014
3411.00,0.0014
3410.00,0.0014
3409.00,0.0014
3408.00,0.0014
3407.00,0.0014
3406.00,0.0014
3405.00,0.0015
3404.00,0.0015
3403.00,0.0015
3402.00,0.0015
3401.00,0.0015
3400.00,0.0015
3399.00,0.0016
3398.00,0.0016
3397.00,0.0016
3396.00,0.0016
3395.00,0.0016
3394.00,0.0016
3393.00,0.0017
3392.00,0.0017
3391.00,0.0017
3390.00,0.0017
3389.00,0.0017
3388.00,0.0016
3387.00,0.0016
3386.00,0.0016
3385.00,0.0015
3384.00,0.0015
3383.00,0.0015
3382.00,0.0014
3381.00,0.0014
3380.00,0.0014
3379.00,0.0015
3378.00,0.0016
3377.00,0.0017
3376.00,0.0018
3375.00,0.0018
3374.00,0.0017
3373.00,0.0016
3372.00,0.0015
3371.00,0.0015
3370.00,0.0015
3369.00,0.0015
3368.00,0.0015
3367.00,0.0016
3366.00,0.0016
3365.00,0.0017
3364.00,0.0017
3363.00,0.0017
3362.00,0.0017
3361.00,0.0017
3360.00,0.0017
3359.00,0.0016
3358.00,0.0016
3357.00,0.0015
3356.00,0.0014
3355.00,0.0014
3354.00,0.0015
3353.00,0.0016
3352.00,0.0018
3351.00,0.0019
3350.00,0.0019
3349.00,0.0018
3348.00,0.0016
3347.00,0.0014
3346.00,0.0013
3345.00,0.0013
3344.00,0.0014
3343.00,0.0014
3342.00,0.0015
3341.00,0.0015
3340.00,0.0014
3339.00,0.0014
3338.00,0.0014
3337.00,0.0015
3336.00,0.0015
3335.00,0.0016
3334.00,0.0016
3333.00,0.0017
3332.00,0.0017
3331.00,0.0017
3330.00,0.0017
3329.00,0.0017
3328.00,0.0017
3327.00,0.0017
3326.00,0.0018
3325.00,0.0018
3324.00,0.0018
3323.00,0.0018
3322.00,0.0017
3321.00,0.0017
3320.00,0.0018
3319.00,0.0019
3318.00,0.0020
3317.00,0.0021
3316.00,0.0022
3315.00,0.0022
3314.00,0.0023
3313.00,0.0023
3312.00,0.0023
3311.00,0.0023
3310.00,0.0023
3309.00,0.0022
3308.00,0.0021
3307.00,0.0020
3306.00,0.0020
3305.00,0.0020
3304.00,0.0020
3303.00,0.0021
3302.00,0.0022
3301.00,0.0022
3300.00,0.0023
3299.00,0.0023
3298.00,0.0022
3297.00,0.0022
3296.00,0.0022
3295.00,0.0022
3294.00,0.0023
3293.00,0.0024
3292.00,0.0024
3291.00,0.0024
3290.00,0.0024
3289.00,0.0024
3288.00,0.0024
3287.00,0.0024
3286.00,0.0025
3285.00,0.0025
3284.00,0.0025
3283.00,0.0025
3282.00,0.0024
3281.00,0.0024
3280.00,0.0024
3279.00,0.0025
3278.00,0.0026
3277.00,0.0027
3276.00,0.0027
3275.00,0.0027
3274.00,0.0027
3273.00,0.0027
3272.00,0.0027
3271.00,0.0028
3270.00,0.0030
3269.00,0.0032
3268.00,0.0034
3267.00,0.0034
3266.00,0.0033
3265.00,0.0031
3264.00,0.0030
3263.00,0.0029
3262.00,0.0028
3261.00,0.0027
3260.00,0.0026
3259.00,0.0026
3258.00,0.0026
3257.00,0.0026
3256.00,0.0027
3255.00,0.0027
3254.00,0.0027
3253.00,0.0027
3252.00,0.0028
3251.00,0.0029
3250.00,0.0030
3249.00,0.0030
3248.00,0.0029
3247.00,0.0028
3246.00,0.0027
3245.00,0.0026
3244.00,0.0026
3243.00,0.0026
3242.00,0.0026
3241.00,0.0026
3240.00,0.0026
3239.00,0.0027
3238.00,0.0027
3237.00,0.0027
3236.00,0.0027
3235.00,0.0028
3234.00,0.0027
3233.00,0.0027
3232.00,0.0026
3231.00,0.0025
3230.00,0.0025
3229.00,0.0025
3228.00,0.0026
3227.00,0.0026
3226.00,0.0026
3225.00,0.0025
3224.00,0.0025
3223.00,0.0025
3222.00,0.0025
3221.00,0.0025
3220.00,0.0026
3219.00,0.0026
3218.00,0.0026
3217.00,0.0026
3216.00,0.0025
3215.00,0.0025
3214.00,0.0025
3213.00,0.0025
3212.00,0.0025
3211.00,0.0025
3210.00,0.0026
3209.00,0.0025
3208.00,0.0025
3207.00,0.0025
3206.00,0.0024
3205.00,0.0025
3204.00,0.0025
3203.00,0.0025
3202.00,0.0024
3201.00,0.0024
3200.00,0.0023
3199.00,0.0023
3198.00,0.0024
3197.00,0.0025
3196.00,0.0025
3195.00,0.0025
3194.00,0.0025
3193.00,0.0024
3192.00,0.0024
3191.00,0.0024
3190.00,0.0024
3189.00,0.0025
3188.00,0.0025
3187.00,0.0025
3186.00,0.0024
3185.00,0.0023
3184.00,0.0022
3183.00,0.0022
3182.00,0.0022
3181.00,0.0023
3180.00,0.0023
3179.00,0.0023
3178.00,0.0023
3177.00,0.0022
3176.00,0.0022
3175.00,0.0023
3174.00,0.0024
3173.00,0.0025
3172.00,0.0025
3171.00,0.0025
3170.00,0.0024
3169.00,0.0023
3168.00,0.0023
3167.00,0.0023
3166.00,0.0023
3165.00,0.0022
3164.00,0.0022
3163.00,0.0022
3162.00,0.0022
3161.00,0.0021
3160.00,0.0021
3159.00,0.0021
3158.00,0.0021
3157.00,0.0022
3156.00,0.0022
3155.00,0.0022
3154.00,0.0021
3153.00,0.0021
3152.00,0.0022
3151.00,0.0022
3150.00,0.0021
3149.00,0.0021
3148.00,0.0021
3147.00,0.0021
3146.00,0.0021
3145.00,0.0021
3144.00,0.0020
3143.00,0.0020
3142.00,0.0019
3141.00,0.0019
3140.00,0.0019
3139.00,0.0020
3138.00,0.0020
3137.00,0.0020
3136.00,0.0020
3135.00,0.0019
3134.00,0.0019
3133.00,0.0018
3132.00,0.0018
3131.00,0.0018
3130.00,0.0019
3129.00,0.0019
3128.00,0.0019
3127.00,0.0019
3126.00,0.0019
3125.00,0.0019
3124.00,0.0019
3123.00,0.0019
3122.00,0.0018
3121.00,0.0017
3120.00,0.0017
3119.00,0.0017
3118.00,0.0017
3117.00,0.0017
3116.00,0.0018
3115.00,0.0019
3114.00,0.0020
3113.00,0.0020
3112.00,0.0020
3111.00,0.0019
3110.00,0.0018
3109.00,0.0018
3108.00,0.0018
3107.00,0.0019
3106.00,0.0020
3105.00,0.0020
3104.00,0.0020
3103.00,0.0019
3102.00,0.0019
3101.00,0.0019
3100.00,0.0020
3099.00,0.0020
3098.00,0.0021
3097.00,0.0021
3096.00,0.0021
3095.00,0.0020
3094.00,0.0019
3093.00,0.0019
3092.00,0.0020
3091.00,0.0021
3090.00,0.0021
3089.00,0.0021
3088.00,0.0021
3087.00,0.0020
3086.00,0.0019
3085.00,0.0019
3084.00,0.0020
3083.00,0.0020
3082.00,0.0021
3081.00,0.0021
3080.00,0.0021
3079.00,0.0020
3078.00,0.0019
3077.00,0.0019
3076.00,0.0018
3075.00,0.0018
3074.00,0.0019
3073.00,0.0019
3072.00,0.0020
3071.00,0.0020
3070.00,0.0020
3069.00,0.0020
3068.00,0.0020
3067.00,0.0020
3066.00,0.0020
3065.00,0.0019
3064.00,0.0019
3063.00,0.0018
3062.00,0.0018
3061.00,0.0018
3060.00,0.0018
3059.00,0.0018
3058.00,0.0018
3057.00,0.0019
3056.00,0.0019
3055.00,0.0020
3054.00,0.0020
3053.00,0.0020
3052.00,0.0020
3051.00,0.0019
3050.00,0.0019
3049.00,0.0019
3048.00,0.0019
3047.00,0.0019
3046.00,0.0018
3045.00,0.0018
3044.00,0.0019
3043.00,0.0019
3042.00,0.0020
3041.00,0.0021
3040.00,0.0021
3039.00,0.0020
3038.00,0.0019
3037.00,0.0018
3036.00,0.0018
3035.00,0.0018
3034.00,0.0018
3033.00,0.0018
3032.00,0.0019
3031.00,0.0019
3030.00,0.0018
3029.00,0.0018
3028.00,0.0018
3027.00,0.0018
3026.00,0.0018
3025.00,0.0018
3024.00,0.0019
3023.00,0.0019
3022.00,0.0019
3021.00,0.0019
3020.00,0.0018
3019.00,0.0017
3018.00,0.0016
3017.00,0.0016
3016.00,0.0017
3015.00,0.0018
3014.00,0.0019
3013.00,0.0019
3012.00,0.0018
3011.00,0.0018
3010.00,0.0018
3009.00,0.0017
3008.00,0.0017
3007.00,0.0017
3006.00,0.0018
3005.00,0.0019
3004.00,0.0020
3003.00,0.0019
3002.00,0.0019
3001.00,0.0018
3000.00,0.0018
2999.00,0.0018
2998.00,0.0017
2997.00,0.0017
2996.00,0.0017
2995.00,0.0017
2994.00,0.0017
2993.00,0.0017
2992.00,0.0017
2991.00,0.0017
2990.00,0.0017
2989.00,0.0018
2988.00,0.0018
2987.00,0.0018
2986.00,0.0018
2985.00,0.0018
2984.00,0.0019
2983.00,0.0019
2982.00,0.0019
2981.00,0.0019
2980.00,0.0019
2979.00,0.0019
2978.00,0.0019
2977.00,0.0019
2976.00,0.0019
2975.00,0.0020
2974.00,0.0020
2973.00,0.0020
2972.00,0.0020
2971.00,0.0020
2970.00,0.0020
2969.00,0.0020
2968.00,0.0020
2967.00,0.0021
2966.00,0.0021
2965.00,0.0021
2964.00,0.0021
2963.00,0.0021
2962.00,0.0021
2961.00,0.0021
2960.00,0.0021
2959.00,0.0021
2958.00,0.0021
2957.00,0.0021
2956.00,0.0021
2955.00,0.0021
2954.00,0.0021
2953.00,0.0020
2952.00,0.0020
2951.00,0.0020
2950.00,0.0019
2949.00,0.0018
2948.00,0.0017
2947.00,0.0018
2946.00,0.0018
2945.00,0.0018
2944.00,0.0019
2943.00,0.0019
2942.00,0.0020
2941.00,0.0022
2940.00,0.0022
2939.00,0.0022
2938.00,0.0022
2937.00,0.0021
2936.00,0.0021
2935.00,0.0021
2934.00,0.0021
2933.00,0.0020
2932.00,0.0019
2931.00,0.0019
2930.00,0.0019
2929.00,0.0019
2928.00,0.0020
2927.00,0.0020
2926.00,0.0019
2925.00,0.0018
2924.00,0.0017
2923.00,0.0017
2922.00,0.0017
2921.00,0.0017
2920.00,0.0017
2919.00,0.0016
2918.00,0.0014
2917.00,0.0013
2916.00,0.0013
2915.00,0.0013
2914.00,0.0014
2913.00,0.0015
2912.00,0.0015
2911.00,0.0015
2910.00,0.0015
2909.00,0.0015
2908.00,0.0015
2907.00,0.0016
2906.00,0.0016
2905.00,0.0017
2904.00,0.0018
2903.00,0.0018
2902.00,0.0019
2901.00,0.0018
2900.00,0.0017
2899.00,0.0016
2898.00,0.0016
2897.00,0.0016
2896.00,0.0017
2895.00,0.0017
2894.00,0.0017
2893.00,0.0017
2892.00,0.0017
2891.00,0.0018
2890.00,0.0018
2889.00,0.0018
2888.00,0.0018
2887.00,0.0018
2886.00,0.0018
2885.00,0.0018
2884.00,0.0018
2883.00,0.0019
2882.00,0.0019
2881.00,0.0019
2880.00,0.0020
2879.00,0.0019
2878.00,0.0019
2877.00,0.0018
2876.00,0.0018
2875.00,0.0018
2874.00,0.0018
2873.00,0.0018
2872.00,0.0017
2871.00,0.0017
2870.00,0.0017
2869.00,0.0017
2868.00,0.0017
2867.00,0.0017
2866.00,0.0016
2865.00,0.0016
2864.00,0.0017
2863.00,0.0018
2862.00,0.0018
2861.00,0.0018
2860.00,0.0017
2859.00,0.0017
2858.00,0.0016
2857.00,0.0016
2856.00,0.0015
2855.00,0.0015
2854.00,0.0014
2853.00,0.0013
2852.00,0.0012
2851.00,0.0012
2850.00,0.0012
2849.00,0.0013
2848.00,0.0014
2847.00,0.0016
2846.00,0.0017
2845.00,0.0017
2844.00,0.0017
2843.00,0.0016
2842.00,0.0016
2841.00,0.0016
2840.00,0.0016
2839.00,0.0017
2838.00,0.0017
2837.00,0.0017
2836.00,0.0017
2835.00,0.0018
2834.00,0.0018
2833.00,0.0018
2832.00,0.0018
2831.00,0.0018
2830.00,0.0018
2829.00,0.0017
2828.00,0.0018
2827.00,0.0018
2826.00,0.0017
2825.00,0.0017
2824.00,0.0016
2823.00,0.0016
2822.00,0.0016
2821.00,0.0016
2820.00,0.0016
2819.00,0.0016
2818.00,0.0015
2817.00,0.0014
2816.00,0.0014
2815.00,0.0014
2814.00,0.0015
2813.00,0.0015
2812.00,0.0016
2811.00,0.0017
2810.00,0.0017
2809.00,0.0017
2808.00,0.0017
2807.00,0.0016
2806.00,0.0016
2805.00,0.0015
2804.00,0.0015
2803.00,0.0015
2802.00,0.0015
2801.00,0.0015
2800.00,0.0015
2799.00,0.0015
2798.00,0.0016
2797.00,0.0016
2796.00,0.0016
2795.00,0.0017
2794.00,0.0017
2793.00,0.0017
2792.00,0.0016
2791.00,0.0016
2790.00,0.0015
2789.00,0.0014
2788.00,0.0014
2787.00,0.0015
2786.00,0.0016
2785.00,0.0016
2784.00,0.0016
2783.00,0.0016
2782.00,0.0016
2781.00,0.0015
2780.00,0.0015
2779.00,0.0015
2778.00,0.0015
2777.00,0.0015
2776.00,0.0015
2775.00,0.0015
2774.00,0.0015
2773.00,0.0015
2772.00,0.0015
2771.00,0.0015
2770.00,0.0015
2769.00,0.0015
2768.00,0.0015
2767.00,0.0015
2766.00,0.0014
2765.00,0.0013
2764.00,0.0013
2763.00,0.0014
2762.00,0.0014
2761.00,0.0015
2760.00,0.0015
2759.00,0.0014
2758.00,0.0014
2757.00,0.0013
2756.00,0.0013
2755.00,0.0013
2754.00,0.0013
2753.00,0.0014
2752.00,0.0014
2751.00,0.0015
2750.00,0.0015
2749.00,0.0015
2748.00,0.0014
2747.00,0.0014
2746.00,0.0013
2745.00,0.0013
2744.00,0.0013
2743.00,0.0013
2742.00,0.0013
2741.00,0.0014
2740.00,0.0014
2739.00,0.0014
2738.00,0.0014
2737.00,0.0015
2736.00,0.0015
2735.00,0.0015
2734.00,0.0015
2733.00,0.0015
2732.00,0.0014
2731.00,0.0014
2730.00,0.0014
2729.00,0.0014
2728.00,0.0014
2727.00,0.0013
2726.00,0.0013
2725.00,0.0013
2724.00,0.0013
2723.00,0.0012
2722.00,0.0012
2721.00,0.0013
2720.00,0.0013
2719.00,0.0014
2718.00,0.0014
2717.00,0.0014
2716.00,0.0014
2715.00,0.0013
2714.00,0.0013
2713.00,0.0013
2712.00,0.0013
2711.00,0.0013
2710.00,0.0013
2709.00,0.0013
2708.00,0.0013
2707.00,0.0013
2706.00,0.0014
2705.00,0.0014
2704.00,0.0014
2703.00,0.0015
2702.00,0.0015
2701.00,0.0015
2700.00,0.0014
2699.00,0.0013
2698.00,0.0013
2697.00,0.0013
2696.00,0.0013
2695.00,0.0013
2694.00,0.0013
2693.00,0.0013
2692.00,0.0013
2691.00,0.0013
2690.00,0.0013
2689.00,0.0013
2688.00,0.0013
2687.00,0.0013
2686.00,0.0013
2685.00,0.0013
2684.00,0.0013
2683.00,0.0012
2682.00,0.0012
2681.00,0.0013
2680.00,0.0014
2679.00,0.0014
2678.00,0.0013
2677.00,0.0013
2676.00,0.0012
2675.00,0.0012
2674.00,0.0012
2673.00,0.0012
2672.00,0.0013
2671.00,0.0013
2670.00,0.0013
2669.00,0.0013
2668.00,0.0013
2667.00,0.0013
2666.00,0.0014
2665.00,0.0015
2664.00,0.0016
2663.00,0.0017
2662.00,0.0017
2661.00,0.0017
2660.00,0.0016
2659.00,0.0016
2658.00,0.0016
2657.00,0.0016
2656.00,0.0016
2655.00,0.0016
2654.00,0.0016
2653.00,0.0016
2652.00,0.0016
2651.00,0.0016
2650.00,0.0017
2649.00,0.0017
2648.00,0.0017
2647.00,0.0017
2646.00,0.0017
2645.00,0.0016
2644.00,0.0015
2643.00,0.0015
2642.00,0.0015
2641.00,0.0015
2640.00,0.0015
2639.00,0.0014
2638.00,0.0014
2637.00,0.0014
2636.00,0.0014
2635.00,0.0014
2634.00,0.0015
2633.00,0.0016
2632.00,0.0017
2631.00,0.0018
2630.00,0.0018
2629.00,0.0017
2628.00,0.0017
2627.00,0.0017
2626.00,0.0017
2625.00,0.0017
2624.00,0.0016
2623.00,0.0016
2622.00,0.0016
2621.00,0.0016
2620.00,0.0017
2619.00,0.0017
2618.00,0.0017
2617.00,0.0017
2616.00,0.0016
2615.00,0.0015
2614.00,0.0015
2613.00,0.0016
2612.00,0.0017
2611.00,0.0017
2610.00,0.0016
2609.00,0.0015
2608.00,0.0015
2607.00,0.0014
2606.00,0.0015
2605.00,0.0015
2604.00,0.0014
2603.00,0.0013
2602.00,0.0012
2601.00,0.0012
2600.00,0.0013
2599.00,0.0014
2598.00,0.0014
2597.00,0.0014
2596.00,0.0014
2595.00,0.0015
2594.00,0.0016
2593.00,0.0016
2592.00,0.0016
2591.00,0.0016
2590.00,0.0015
2589.00,0.0014
2588.00,0.0013
2587.00,0.0012
2586.00,0.0013
2585.00,0.0013
2584.00,0.0014
2583.00,0.0016
2582.00,0.0016
2581.00,0.0017
2580.00,0.0016
2579.00,0.0016
2578.00,0.0015
2577.00,0.0015
2576.00,0.0014
2575.00,0.0014
2574.00,0.0013
2573.00,0.0014
2572.00,0.0014
2571.00,0.0015
2570.00,0.0015
2569.00,0.0014
2568.00,0.0013
2567.00,0.0012
2566.00,0.0012
2565.00,0.0012
2564.00,0.0013
2563.00,0.0013
2562.00,0.0013
2561.00,0.0013
2560.00,0.0012
2559.00,0.0012
2558.00,0.0011
2557.00,0.0011
2556.00,0.0012
2555.00,0.0013
2554.00,0.0013
2553.00,0.0014
2552.00,0.0014
2551.00,0.0014
2550.00,0.0015
2549.00,0.0015
2548.00,0.0013
2547.00,0.0012
2546.00,0.0011
2545.00,0.0011
2544.00,0.0011
2543.00,0.0012
2542.00,0.0012
2541.00,0.0012
2540.00,0.0012
2539.00,0.0012
2538.00,0.0012
2537.00,0.0011
2536.00,0.0010
2535.00,0.0010
2534.00,0.0009
2533.00,0.0009
2532.00,0.0009
2531.00,0.0010
2530.00,0.0010
2529.00,0.0011
2528.00,0.0012
2527.00,0.0012
2526.00,0.0012
2525.00,0.0012
2524.00,0.0013
2523.00,0.0013
2522.00,0.0014
2521.00,0.0013
2520.00,0.0013
2519.00,0.0012
2518.00,0.0012
2517.00,0.0013
2516.00,0.0014
2515.00,0.0015
2514.00,0.0015
2513.00,0.0013
2512.00,0.0012
2511.00,0.0011
2510.00,0.0010
2509.00,0.0010
2508.00,0.0010
2507.00,0.0009
2506.00,0.0008
2505.00,0.0007
2504.00,0.0008
2503.00,0.0009
2502.00,0.0010
2501.00,0.0011
2500.00,0.0011
2499.00,0.0011
2498.00,0.0012
2497.00,0.0013
2496.00,0.0013
2495.00,0.0013
2494.00,0.0013
2493.00,0.0013
2492.00,0.0013
2491.00,0.0012
2490.00,0.0012
2489.00,0.0012
2488.00,0.0012
2487.00,0.0013
2486.00,0.0014
2485.00,0.0015
2484.00,0.0015
2483.00,0.0014
2482.00,0.0014
2481.00,0.0014
2480.00,0.0015
2479.00,0.0015
2478.00,0.0014
2477.00,0.0014
2476.00,0.0014
2475.00,0.0014
2474.00,0.0015
2473.00,0.0015
2472.00,0.0016
2471.00,0.0016
2470.00,0.0015
2469.00,0.0014
2468.00,0.0014
2467.00,0.0013
2466.00,0.0013
2465.00,0.0012
2464.00,0.0012
2463.00,0.0012
2462.00,0.0013
2461.00,0.0013
2460.00,0.0013
2459.00,0.0013
2458.00,0.0015
2457.00,0.0016
2456.00,0.0017
2455.00,0.0017
2454.00,0.0017
2453.00,0.0016
2452.00,0.0016
2451.00,0.0016
2450.00,0.0016
2449.00,0.0015
2448.00,0.0014
2447.00,0.0013
2446.00,0.0013
2445.00,0.0013
2444.00,0.0013
2443.00,0.0013
2442.00,0.0013
2441.00,0.0013
2440.00,0.0014
2439.00,0.0013
2438.00,0.0013
2437.00,0.0013
2436.00,0.0013
2435.00,0.0014
2434.00,0.0015
2433.00,0.0016
2432.00,0.0017
2431.00,0.0016
2430.00,0.0015
2429.00,0.0015
2428.00,0.0015
2427.00,0.0015
2426.00,0.0015
2425.00,0.0015
2424.00,0.0015
2423.00,0.0015
2422.00,0.0015
2421.00,0.0016
2420.00,0.0017
2419.00,0.0018
2418.00,0.0018
2417.00,0.0016
2416.00,0.0014
2415.00,0.0013
2414.00,0.0013
2413.00,0.0014
2412.00,0.0015
2411.00,0.0015
2410.00,0.0015
2409.00,0.0015
2408.00,0.0014
2407.00,0.0013
2406.00,0.0012
2405.00,0.0012
2404.00,0.0012
2403.00,0.0012
2402.00,0.0013
2401.00,0.0012
2400.00,0.0012
2399.00,0.0012
2398.00,0.0012
2397.00,0.0012
2396.00,0.0012
2395.00,0.0012
2394.00,0.0012
2393.00,0.0012
2392.00,0.0011
2391.00,0.0011
2390.00,0.0011
2389.00,0.0011
2388.00,0.0011
2387.00,0.0011
2386.00,0.0012
2385.00,0.0012
2384.00,0.0012
2383.00,0.0012
2382.00,0.0012
2381.00,0.0011
2380.00,0.0010
2379.00,0.0009
2378.00,0.0009
2377.00,0.0008
2376.00,0.0008
2375.00,0.0008
2374.00,0.0009
2373.00,0.0010
2372.00,0.0011
2371.00,0.0011
2370.00,0.0010
2369.00,0.0009
2368.00,0.0008
2367.00,0.0007
2366.00,0.0006
2365.00,0.0006
2364.00,0.0006
2363.00,0.0007
2362.00,0.0008
2361.00,0.0009
2360.00,0.0010
2359.00,0.0011
2358.00,0.0012
2357.00,0.0012
2356.00,0.0011
2355.00,0.0008
2354.00,0.0006
2353.00,0.0004
2352.00,0.0003
2351.00,0.0003
2350.00,0.0004
2349.00,0.0006
2348.00,0.0008
2347.00,0.0009
2346.00,0.0009
2345.00,0.0009
2344.00,0.0009
2343.00,0.0009
2342.00,0.0010
2341.00,0.0009
2340.00,0.0009
2339.00,0.0009
2338.00,0.0009
2337.00,0.0010
2336.00,0.0009
2335.00,0.0009
2334.00,0.0007
2333.00,0.0006
2332.00,0.0006
2331.00,0.0006
2330.00,0.0006
2329.00,0.0007
2328.00,0.0009
2327.00,0.0012
2326.00,0.0015
2325.00,0.0017
2324.00,0.0018
2323.00,0.0017
2322.00,0.0016
2321.00,0.0015
2320.00,0.0014
2319.00,0.0013
2318.00,0.0012
2317.00,0.0012
2316.00,0.0011
2315.00,0.0012
2314.00,0.0012
2313.00,0.0012
2312.00,0.0012
2311.00,0.0013
2310.00,0.0013
2309.00,0.0014
2308.00,0.0014
2307.00,0.0013
2306.00,0.0012
2305.00,0.0011
2304.00,0.0011
2303.00,0.0011
2302.00,0.0012
2301.00,0.0014
2300.00,0.0016
2299.00,0.0017
2298.00,0.0018
2297.00,0.0018
2296.00,0.0018
2295.00,0.0017
2294.00,0.0016
2293.00,0.0015
2292.00,0.0015
2291.00,0.0016
2290.00,0.0017
2289.00,0.0018
2288.00,0.0019
2287.00,0.0019
2286.00,0.0019
2285.00,0.0018
2284.00,0.0017
2283.00,0.0017
2282.00,0.0017
2281.00,0.0018
2280.00,0.0019
2279.00,0.0020
2278.00,0.0020
2277.00,0.0020
2276.00,0.0018
2275.00,0.0017
2274.00,0.0016
2273.00,0.0015
2272.00,0.0015
2271.00,0.0015
2270.00,0.0015
2269.00,0.0015
2268.00,0.0015
2267.00,0.0014
2266.00,0.0011
2265.00,0.0007
2264.00,0.0004
2263.00,0.0001
2262.00,0.0001
2261.00,0.0003
2260.00,0.0006
2259.00,0.0008
2258.00,0.0009
2257.00,0.0008
2256.00,0.0008
2255.00,0.0009
2254.00,0.0010
2253.00,0.0011
2252.00,0.0010
2251.00,0.0009
2250.00,0.0008
2249.00,0.0008
2248.00,0.0009
2247.00,0.0010
2246.00,0.0011
2245.00,0.0011
2244.00,0.0011
2243.00,0.0011
2242.00,0.0012
2241.00,0.0012
2240.00,0.0011
2239.00,0.0010
2238.00,0.0008
2237.00,0.0008
2236.00,0.0008
2235.00,0.0009
2234.00,0.0010
2233.00,0.0012
2232.00,0.0013
2231.00,0.0014
2230.00,0.0015
2229.00,0.0015
2228.00,0.0014
2227.00,0.0012
2226.00,0.0010
2225.00,0.0009
2224.00,0.0008
2223.00,0.0007
2222.00,0.0007
2221.00,0.0007
2220.00,0.0008
2219.00,0.0009
2218.00,0.0010
2217.00,0.0010
2216.00,0.0011
2215.00,0.0011
2214.00,0.0012
2213.00,0.0013
2212.00,0.0013
2211.00,0.0013
2210.00,0.0011
2209.00,0.0011
2208.00,0.0011
2207.00,0.0011
2206.00,0.0010
2205.00,0.0009
2204.00,0.0010
2203.00,0.0011
2202.00,0.0013
2201.00,0.0015
2200.00,0.0016
2199.00,0.0015
2198.00,0.0012
2197.00,0.0010
2196.00,0.0010
2195.00,0.0011
2194.00,0.0012
2193.00,0.0012
2192.00,0.0013
2191.00,0.0013
2190.00,0.0013
2189.00,0.0012
2188.00,0.0011
2187.00,0.0011
2186.00,0.0010
2185.00,0.0007
2184.00,0.0003
2183.00,-0.0001
2182.00,-0.0003
2181.00,-0.0002
2180.00,0.0001
2179.00,0.0003
2178.00,0.0004
2177.00,0.0003
2176.00,0.0003
2175.00,0.0006
2174.00,0.0010
2173.00,0.0014
2172.00,0.0018
2171.00,0.0020
2170.00,0.0021
2169.00,0.0022
2168.00,0.0025
2167.00,0.0026
2166.00,0.0024
2165.00,0.0020
2164.00,0.0016
2163.00,0.0015
2162.00,0.0013
2161.00,0.0008
2160.00,-0.0002
2159.00,-0.0010
2158.00,-0.0015
2157.00,-0.0016
2156.00,-0.0015
2155.00,-0.0015
2154.00,-0.0013
2153.00,-0.0009
2152.00,-0.0005
2151.00,0.0000
2150.00,0.0003
2149.00,0.0004
2148.00,0.0003
2147.00,0.0003
2146.00,0.0003
2145.00,0.0005
2144.00,0.0007
2143.00,0.0008
2142.00,0.0007
2141.00,0.0005
2140.00,0.0003
2139.00,0.0001
2138.00,-0.0001
2137.00,-0.0002
2136.00,-0.0003
2135.00,-0.0004
2134.00,-0.0004
2133.00,-0.0004
2132.00,-0.0002
2131.00,-0.0000
2130.00,0.0001
2129.00,0.0001
2128.00,0.0000
2127.00,-0.0001
2126.00,-0.0001
2125.00,0.0000
2124.00,0.0002
2123.00,0.0003
2122.00,0.0005
2121.00,0.0007
2120.00,0.0008
2119.00,0.0008
2118.00,0.0007
2117.00,0.0007
2116.00,0.0008
2115.00,0.0008
2114.00,0.0009
2113.00,0.0010
2112.00,0.0012
2111.00,0.0013
2110.00,0.0013
2109.00,0.0013
2108.00,0.0012
2107.00,0.0012
2106.00,0.0011
2105.00,0.0010
2104.00,0.0008
2103.00,0.0008
2102.00,0.0009
2101.00,0.0011
2100.00,0.0012
2099.00,0.0013
2098.00,0.0012
2097.00,0.0010
2096.00,0.0007
2095.00,0.0005
2094.00,0.0006
2093.00,0.0008
2092.00,0.0009
2091.00,0.0009
2090.00,0.0008
2089.00,0.0007
2088.00,0.0006
2087.00,0.0007
2086.00,0.0009
2085.00,0.0011
2084.00,0.0011
2083.00,0.0010
2082.00,0.0009
2081.00,0.0009
2080.00,0.0009
2079.00,0.0010
2078.00,0.0011
2077.00,0.0010
2076.00,0.0009
2075.00,0.0009
2074.00,0.0010
2073.00,0.0011
2072.00,0.0010
2071.00,0.0009
2070.00,0.0008
2069.00,0.0008
2068.00,0.0008
2067.00,0.0009
2066.00,0.0011
2065.00,0.0013
2064.00,0.0014
2063.00,0.0014
2062.00,0.0014
2061.00,0.0013
2060.00,0.0011
2059.00,0.0008
2058.00,0.0006
2057.00,0.0004
2056.00,0.0004
2055.00,0.0005
2054.00,0.0009
2053.00,0.0014
2052.00,0.0019
2051.00,0.0022
2050.00,0.0022
2049.00,0.0020
2048.00,0.0017
2047.00,0.0016
2046.00,0.0016
2045.00,0.0016
2044.00,0.0014
2043.00,0.0011
2042.00,0.0007
2041.00,0.0005
2040.00,0.0005
2039.00,0.0008
2038.00,0.0012
2037.00,0.0013
2036.00,0.0010
2035.00,0.0005
2034.00,-0.0000
2033.00,-0.0002
2032.00,-0.0001
2031.00,0.0002
2030.00,0.0004
2029.00,0.0004
2028.00,0.0002
2027.00,-0.0000
2026.00,-0.0001
2025.00,0.0000
2024.00,0.0002
2023.00,0.0001
2022.00,-0.0002
2021.00,-0.0006
2020.00,-0.0009
2019.00,-0.0008
2018.00,-0.0006
2017.00,-0.0004
2016.00,-0.0003
2015.00,-0.0002
2014.00,-0.0001
2013.00,0.0001
2012.00,0.0004
2011.00,0.0008
2010.00,0.0014
2009.00,0.0018
2008.00,0.0018
2007.00,0.0014
2006.00,0.0008
2005.00,0.0003
2004.00,0.0001
2003.00,0.0001
2002.00,0.0002
2001.00,0.0004
2000.00,0.0007
1999.00,0.0010
1998.00,0.0012
1997.00,0.0013
1996.00,0.0013
1995.00,0.0013
1994.00,0.0012
1993.00,0.0012
1992.00,0.0014
1991.00,0.0018
1990.00,0.0020
1989.00,0.0019
1988.00,0.0015
1987.00,0.0010
1986.00,0.0007
1985.00,0.0008
1984.00,0.0012
1983.00,0.0015
1982.00,0.0016
1981.00,0.0015
1980.00,0.0013
1979.00,0.0010
1978.00,0.0006
1977.00,0.0001
1976.00,-0.0004
1975.00,-0.0006
1974.00,-0.0005
1973.00,-0.0001
1972.00,0.0002
1971.00,0.0005
1970.00,0.0006
1969.00,0.0007
1968.00,0.0008
1967.00,0.0009
1966.00,0.0008
1965.00,0.0006
1964.00,0.0004
1963.00,0.0003
1962.00,0.0002
1961.00,0.0001
1960.00,-0.0001
1959.00,-0.0002
1958.00,-0.0002
1957.00,-0.0002
1956.00,-0.0000
1955.00,0.0001
1954.00,0.0001
1953.00,-0.0000
1952.00,-0.0001
1951.00,-0.0000
1950.00,0.0002
1949.00,0.0004
1948.00,0.0005
1947.00,0.0004
1946.00,0.0002
1945.00,-0.0000
1944.00,-0.0002
1943.00,-0.0002
1942.00,-0.0003
1941.00,-0.0002
1940.00,-0.0001
1939.00,0.0001
1938.00,0.0001
1937.00,0.0002
1936.00,0.0003
1935.00,0.0003
1934.00,0.0004
1933.00,0.0004
1932.00,0.0004
1931.00,0.0004
1930.00,0.0003
1929.00,0.0004
1928.00,0.0004
1927.00,0.0005
1926.00,0.0006
1925.00,0.0006
1924.00,0.0006
1923.00,0.0006
1922.00,0.0006
1921.00,0.0007
1920.00,0.0008
1919.00,0.0008
1918.00,0.0008
1917.00,0.0008
1916.00,0.0008
1915.00,0.0007
1914.00,0.0005
1913.00,0.0002
1912.00,0.0000
1911.00,-0.0000
1910.00,0.0001
1909.00,0.0003
1908.00,0.0004
1907.00,0.0004
1906.00,0.0003
1905.00,0.0002
1904.00,0.0002
1903.00,0.0003
1902.00,0.0004
1901.00,0.0005
1900.00,0.0006
1899.00,0.0007
1898.00,0.0006
1897.00,0.0006
1896.00,0.0005
1895.00,0.0005
1894.00,0.0004
1893.00,0.0004
1892.00,0.0004
1891.00,0.0004
1890.00,0.0004
1889.00,0.0005
1888.00,0.0005
1887.00,0.0006
1886.00,0.0005
1885.00,0.0005
1884.00,0.0005
1883.00,0.0006
1882.00,0.0006
1881.00,0.0006
1880.00,0.0005
1879.00,0.0005
1878.00,0.0004
1877.00,0.0003
1876.00,0.0003
1875.00,0.0003
1874.00,0.0004
1873.00,0.0004
1872.00,0.0005
1871.00,0.0005
1870.00,0.0005
1869.00,0.0005
1868.00,0.0005
1867.00,0.0006
1866.00,0.0006
1865.00,0.0006
1864.00,0.0005
1863.00,0.0005
1862.00,0.0004
1861.00,0.0005
1860.00,0.0006
1859.00,0.0007
1858.00,0.0008
1857.00,0.0007
1856.00,0.0007
1855.00,0.0006
1854.00,0.0005
1853.00,0.0005
1852.00,0.0005
1851.00,0.0004
1850.00,0.0005
1849.00,0.0005
1848.00,0.0005
1847.00,0.0004
1846.00,0.0003
1845.00,0.0002
1844.00,0.0003
1843.00,0.0005
1842.00,0.0006
1841.00,0.0006
1840.00,0.0005
1839.00,0.0005
1838.00,0.0005
1837.00,0.0005
1836.00,0.0005
1835.00,0.0006
1834.00,0.0005
1833.00,0.0005
1832.00,0.0005
1831.00,0.0005
1830.00,0.0006
1829.00,0.0007
1828.00,0.0007
1827.00,0.0006
1826.00,0.0006
1825.00,0.0005
1824.00,0.0005
1823.00,0.0005
1822.00,0.0004
1821.00,0.0004
1820.00,0.0005
1819.00,0.0005
1818.00,0.0004
1817.00,0.0003
1816.00,0.0003
1815.00,0.0004
1814.00,0.0003
1813.00,0.0003
1812.00,0.0003
1811.00,0.0004
1810.00,0.0005
1809.00,0.0006
1808.00,0.0007
1807.00,0.0006
1806.00,0.0006
1805.00,0.0005
1804.00,0.0004
1803.00,0.0004
1802.00,0.0003
1801.00,0.0003
1800.00,0.0003
1799.00,0.0004
1798.00,0.0004
1797.00,0.0005
1796.00,0.0006
1795.00,0.0006
1794.00,0.0006
1793.00,0.0006
1792.00,0.0006
1791.00,0.0006
1790.00,0.0006
1789.00,0.0005
1788.00,0.0004
1787.00,0.0003
1786.00,0.0004
1785.00,0.0004
1784.00,0.0005
1783.00,0.0005
1782.00,0.0005
1781.00,0.0005
1780.00,0.0005
1779.00,0.0005
1778.00,0.0004
1777.00,0.0004
1776.00,0.0004
1775.00,0.0003
1774.00,0.0003
1773.00,0.0003
1772.00,0.0004
1771.00,0.0005
1770.00,0.0004
1769.00,0.0004
1768.00,0.0004
1767.00,0.0004
1766.00,0.0004
1765.00,0.0003
1764.00,0.0003
1763.00,0.0002
1762.00,0.0003
1761.00,0.0003
1760.00,0.0003
1759.00,0.0003
1758.00,0.0004
1757.00,0.0004
1756.00,0.0005
1755.00,0.0004
1754.00,0.0003
1753.00,0.0002
1752.00,0.0002
1751.00,0.0002
1750.00,0.0002
1749.00,0.0002
1748.00,0.0003
1747.00,0.0003
1746.00,0.0004
1745.00,0.0004
1744.00,0.0004
1743.00,0.0004
1742.00,0.0003
1741.00,0.0003
1740.00,0.0004
1739.00,0.0005
1738.00,0.0006
1737.00,0.0006
1736.00,0.0005
1735.00,0.0005
1734.00,0.0005
1733.00,0.0006
1732.00,0.0006
1731.00,0.0005
1730.00,0.0005
1729.00,0.0005
1728.00,0.0005
1727.00,0.0005
1726.00,0.0005
1725.00,0.0005
1724.00,0.0004
1723.00,0.0004
1722.00,0.0005
1721.00,0.0004
1720.00,0.0004
1719.00,0.0003
1718.00,0.0003
1717.00,0.0003
1716.00,0.0004
1715.00,0.0005
1714.00,0.0006
1713.00,0.0006
1712.00,0.0006
1711.00,0.0006
1710.00,0.0006
1709.00,0.0006
1708.00,0.0006
1707.00,0.0007
1706.00,0.0007
1705.00,0.0008
1704.00,0.0010
1703.00,0.0011
1702.00,0.0012
1701.00,0.0015
1700.00,0.0019
1699.00,0.0023
1698.00,0.0024
1697.00,0.0026
1696.00,0.0029
1695.00,0.0031
1694.00,0.0032
1693.00,0.0032
1692.00,0.0032
1691.00,0.0033
1690.00,0.0034
1689.00,0.0035
1688.00,0.0037
1687.00,0.0038
1686.00,0.0039
1685.00,0.0041
1684.00,0.0041
1683.00,0.0042
1682.00,0.0041
1681.00,0.0042
1680.00,0.0044
1679.00,0.0046
1678.00,0.0048
1677.00,0.0049
1676.00,0.0050
1675.00,0.0051
1674.00,0.0052
1673.00,0.0052
1672.00,0.0053
1671.00,0.0054
1670.00,0.0054
1669.00,0.0055
1668.00,0.0056
1667.00,0.0057
1666.00,0.0059
1665.00,0.0061
1664.00,0.0063
1663.00,0.0065
1662.00,0.0065
1661.00,0.0066
1660.00,0.0067
1659.00,0.0068
1658.00,0.0069
1657.00,0.0072
1656.00,0.0075
1655.00,0.0077
1654.00,0.0077
1653.00,0.0076
1652.00,0.0076
1651.00,0.0076
1650.00,0.0076
1649.00,0.0078
1648.00,0.0079
1647.00,0.0080
1646.00,0.0079
1645.00,0.0080
1644.00,0.0081
1643.00,0.0083
1642.00,0.0084
1641.00,0.0086
1640.00,0.0087
1639.00,0.0088
1638.00,0.0089
1637.00,0.0090
1636.00,0.0091
1635.00,0.0091
1634.00,0.0092
1633.00,0.0093
1632.00,0.0095
1631.00,0.0097
1630.00,0.0099
1629.00,0.0100
1628.00,0.0102
1627.00,0.0104
1626.00,0.0106
1625.00,0.0108
1624.00,0.0111
1623.00,0.0113
1622.00,0.0115
1621.00,0.0118
1620.00,0.0121
1619.00,0.0124
1618.00,0.0126
1617.00,0.0126
1616.00,0.0125
1615.00,0.0124
1614.00,0.0123
1613.00,0.0123
1612.00,0.0123
1611.00,0.0121
1610.00,0.0119
1609.00,0.0116
1608.00,0.0114
1607.00,0.0112
1606.00,0.0109
1605.00,0.0106
1604.00,0.0103
1603.00,0.0099
1602.00,0.0096
1601.00,0.0093
1600.00,0.0090
1599.00,0.0088
1598.00,0.0085
1597.00,0.0083
1596.00,0.0080
1595.00,0.0078
1594.00,0.0075
1593.00,0.0072
1592.00,0.0070
1591.00,0.0068
1590.00,0.0067
1589.00,0.0065
1588.00,0.0064
1587.00,0.0063
1586.00,0.0062
1585.00,0.0061
1584.00,0.0060
1583.00,0.0059
1582.00,0.0058
1581.00,0.0057
1580.00,0.0056
1579.00,0.0056
1578.00,0.0056
1577.00,0.0056
1576.00,0.0055
1575.00,0.0055
1574.00,0.0055
1573.00,0.0054
1572.00,0.0055
1571.00,0.0055
1570.00,0.0055
1569.00,0.0055
1568.00,0.0055
1567.00,0.0055
1566.00,0.0055
1565.00,0.0056
1564.00,0.0057
1563.00,0.0058
1562.00,0.0060
1561.00,0.0063
1560.00,0.0064
1559.00,0.0064
1558.00,0.0064
1557.00,0.0064
1556.00,0.0065
1555.00,0.0066
1554.00,0.0068
1553.00,0.0069
1552.00,0.0070
1551.00,0.0072
1550.00,0.0073
1549.00,0.0074
1548.00,0.0075
1547.00,0.0077
1546.00,0.0078
1545.00,0.0080
1544.00,0.0081
1543.00,0.0082
1542.00,0.0082
1541.00,0.0082
1540.00,0.0082
1539.00,0.0084
1538.00,0.0085
1537.00,0.0086
1536.00,0.0088
1535.00,0.0089
1534.00,0.0090
1533.00,0.0089
1532.00,0.0089
1531.00,0.0090
1530.00,0.0092
1529.00,0.0093
1528.00,0.0094
1527.00,0.0094
1526.00,0.0093
1525.00,0.0093
1524.00,0.0093
1523.00,0.0094
1522.00,0.0093
1521.00,0.0093
1520.00,0.0092
1519.00,0.0092
1518.00,0.0092
1517.00,0.0092
1516.00,0.0092
1515.00,0.0092
1514.00,0.0092
1513.00,0.0093
1512.00,0.0093
1511.00,0.0093
1510.00,0.0093
1509.00,0.0092
1508.00,0.0089
1507.00,0.0085
1506.00,0.0083
1505.00,0.0082
1504.00,0.0082
1503.00,0.0082
1502.00,0.0082
1501.00,0.0082
1500.00,0.0082
1499.00,0.0081
1498.00,0.0079
1497.00,0.0077
1496.00,0.0075
1495.00,0.0073
1494.00,0.0071
1493.00,0.0070
1492.00,0.0069
1491.00,0.0068
1490.00,0.0067
1489.00,0.0065
1488.00,0.0064
1487.00,0.0063
1486.00,0.0062
1485.00,0.0061
1484.00,0.0061
1483.00,0.0061
1482.00,0.0062
1481.00,0.0062
1480.00,0.0062
1479.00,0.0063
1478.00,0.0063
1477.00,0.0063
1476.00,0.0064
1475.00,0.0065
1474.00,0.0065
1473.00,0.0065
1472.00,0.0066
1471.00,0.0067
1470.00,0.0068
1469.00,0.0069
1468.00,0.0071
1467.00,0.0072
1466.00,0.0073
1465.00,0.0074
1464.00,0.0074
1463.00,0.0074
1462.00,0.0074
1461.00,0.0075
1460.00,0.0076
1459.00,0.0077
1458.00,0.0077
1457.00,0.0077
1456.00,0.0077
1455.00,0.0077
1454.00,0.0077
1453.00,0.0077
1452.00,0.0078
1451.00,0.0078
1450.00,0.0078
1449.00,0.0078
1448.00,0.0077
1447.00,0.0077
1446.00,0.0077
1445.00,0.0077
1444.00,0.0077
1443.00,0.0077
1442.00,0.0076
1441.00,0.0076
1440.00,0.0076
1439.00,0.0075
1438.00,0.0074
1437.00,0.0073
1436.00,0.0072
1435.00,0.0071
1434.00,0.0070
1433.00,0.0069
1432.00,0.0068
1431.00,0.0066
1430.00,0.0065
1429.00,0.0065
1428.00,0.0064
1427.00,0.0064
1426.00,0.0063
1425.00,0.0062
1424.00,0.0061
1423.00,0.0061
1422.00,0.0062
1421.00,0.0063
1420.00,0.0064
1419.00,0.0063
1418.00,0.0063
1417.00,0.0062
1416.00,0.0061
1415.00,0.0062
1414.00,0.0062
1413.00,0.0062
1412.00,0.0062
1411.00,0.0062
1410.00,0.0062
1409.00,0.0062
1408.00,0.0064
1407.00,0.0065
1406.00,0.0065
1405.00,0.0064
1404.00,0.0064
1403.00,0.0064
1402.00,0.0065
1401.00,0.0066
1400.00,0.0065
1399.00,0.0065
1398.00,0.0064
1397.00,0.0064
1396.00,0.0064
1395.00,0.0063
1394.00,0.0063
1393.00,0.0064
1392.00,0.0064
1391.00,0.0065
1390.00,0.0065
1389.00,0.0065
1388.00,0.0064
1387.00,0.0064
1386.00,0.0063
1385.00,0.0063
1384.00,0.0063
1383.00,0.0063
1382.00,0.0063
1381.00,0.0064
1380.00,0.0064
1379.00,0.0063
1378.00,0.0062
1377.00,0.0061
1376.00,0.0060
1375.00,0.0059
1374.00,0.0058
1373.00,0.0058
1372.00,0.0058
1371.00,0.0058
1370.00,0.0058
1369.00,0.0058
1368.00,0.0058
1367.00,0.0058
1366.00,0.0058
1365.00,0.0058
1364.00,0.0057
1363.00,0.0056
1362.00,0.0055
1361.00,0.0055
1360.00,0.0055
1359.00,0.0055
1358.00,0.0055
1357.00,0.0055
1356.00,0.0054
1355.00,0.0054
1354.00,0.0054
1353.00,0.0053
1352.00,0.0053
1351.00,0.0053
1350.00,0.0054
1349.00,0.0054
1348.00,0.0054
1347.00,0.0055
1346.00,0.0055
1345.00,0.0055
1344.00,0.0054
1343.00,0.0053
1342.00,0.0053
1341.00,0.0052
1340.00,0.0052
1339.00,0.0052
1338.00,0.0053
1337.00,0.0053
1336.00,0.0053
1335.00,0.0053
1334.00,0.0053
1333.00,0.0053
1332.00,0.0052
1331.00,0.0052
1330.00,0.0052
1329.00,0.0052
1328.00,0.0052
1327.00,0.0052
1326.00,0.0053
1325.00,0.0053
1324.00,0.0053
1323.00,0.0052
1322.00,0.0052
1321.00,0.0052
1320.00,0.0052
1319.00,0.0052
1318.00,0.0052
1317.00,0.0052
1316.00,0.0052
1315.00,0.0052
1314.00,0.0052
1313.00,0.0052
1312.00,0.0053
1311.00,0.0053
1310.00,0.0053
1309.00,0.0053
1308.00,0.0053
1307.00,0.0053
1306.00,0.0053
1305.00,0.0053
1304.00,0.0053
1303.00,0.0053
1302.00,0.0054
1301.00,0.0054
1300.00,0.0054
1299.00,0.0053
1298.00,0.0053
1297.00,0.0052
1296.00,0.0052
1295.00,0.0052
1294.00,0.0052
1293.00,0.0053
1292.00,0.0053
1291.00,0.0053
1290.00,0.0053
1289.00,0.0053
1288.00,0.0052
1287.00,0.0052
1286.00,0.0052
1285.00,0.0052
1284.00,0.0052
1283.00,0.0052
1282.00,0.0052
1281.00,0.0051
1280.00,0.0051
1279.00,0.0050
1278.00,0.0050
1277.00,0.0050
1276.00,0.0051
1275.00,0.0051
1274.00,0.0051
1273.00,0.0050
1272.00,0.0050
1271.00,0.0051
1270.00,0.0051
1269.00,0.0051
1268.00,0.0051
1267.00,0.0051
1266.00,0.0052
1265.00,0.0051
1264.00,0.0051
1263.00,0.0050
1262.00,0.0050
1261.00,0.0050
1260.00,0.0050
1259.00,0.0050
1258.00,0.0049
1257.00,0.0048
1256.00,0.0049
1255.00,0.0050
1254.00,0.0053
1253.00,0.0055
1252.00,0.0056
1251.00,0.0057
1250.00,0.0058
1249.00,0.0058
1248.00,0.0058
1247.00,0.0057
1246.00,0.0057
1245.00,0.0058
1244.00,0.0058
1243.00,0.0059
1242.00,0.0058
1241.00,0.0058
1240.00,0.0058
1239.00,0.0058
1238.00,0.0058
1237.00,0.0059
1236.00,0.0059
1235.00,0.0059
1234.00,0.0059
1233.00,0.0059
1232.00,0.0058
1231.00,0.0058
1230.00,0.0059
1229.00,0.0059
1228.00,0.0060
1227.00,0.0060
1226.00,0.0060
1225.00,0.0059
1224.00,0.0059
1223.00,0.0059
1222.00,0.0058
1221.00,0.0058
1220.00,0.0058
1219.00,0.0058
1218.00,0.0058
1217.00,0.0058
1216.00,0.0058
1215.00,0.0058
1214.00,0.0057
1213.00,0.0057
1212.00,0.0056
1211.00,0.0056
1210.00,0.0055
1209.00,0.0054
1208.00,0.0054
1207.00,0.0054
1206.00,0.0053
1205.00,0.0053
1204.00,0.0053
1203.00,0.0053
1202.00,0.0053
1201.00,0.0053
1200.00,0.0052
1199.00,0.0052
1198.00,0.0052
1197.00,0.0052
1196.00,0.0051
1195.00,0.0051
1194.00,0.0051
1193.00,0.0050
1192.00,0.0050
1191.00,0.0049
1190.00,0.0048
1189.00,0.0048
1188.00,0.0048
1187.00,0.0048
1186.00,0.0048
1185.00,0.0048
1184.00,0.0049
1183.00,0.0049
1182.00,0.0049
1181.00,0.0049
1180.00,0.0049
1179.00,0.0048
1178.00,0.0048
1177.00,0.0048
1176.00,0.0048
1175.00,0.0048
1174.00,0.0048
1173.00,0.0048
1172.00,0.0047
1171.00,0.0047
1170.00,0.0048
1169.00,0.0048
1168.00,0.0047
1167.00,0.0047
1166.00,0.0047
1165.00,0.0047
1164.00,0.0047
1163.00,0.0048
1162.00,0.0047
1161.00,0.0047
1160.00,0.0046
1159.00,0.0046
1158.00,0.0046
1157.00,0.0046
1156.00,0.0047
1155.00,0.0047
1154.00,0.0047
1153.00,0.0047
1152.00,0.0047
1151.00,0.0047
1150.00,0.0047
1149.00,0.0046
1148.00,0.0046
1147.00,0.0045
1146.00,0.0045
1145.00,0.0044
1144.00,0.0044
1143.00,0.0045
1142.00,0.0045
1141.00,0.0045
1140.00,0.0045
1139.00,0.0045
1138.00,0.0045
1137.00,0.0045
1136.00,0.0044
1135.00,0.0044
1134.00,0.0044
1133.00,0.0043
1132.00,0.0043
1131.00,0.0043
1130.00,0.0043
1129.00,0.0043
1128.00,0.0042
1127.00,0.0042
1126.00,0.0041
1125.00,0.0041
1124.00,0.0041
1123.00,0.0040
1122.00,0.0040
1121.00,0.0039
1120.00,0.0039
1119.00,0.0039
1118.00,0.0040
1117.00,0.0040
1116.00,0.0039
1115.00,0.0039
1114.00,0.0038
1113.00,0.0038
1112.00,0.0037
1111.00,0.0037
1110.00,0.0036
1109.00,0.0036
1108.00,0.0036
1107.00,0.0036
1106.00,0.0036
1105.00,0.0036
1104.00,0.0036
1103.00,0.0036
1102.00,0.0037
1101.00,0.0038
1100.00,0.0039
1099.00,0.0040
1098.00,0.0041
1097.00,0.0042
1096.00,0.0043
1095.00,0.0044
1094.00,0.0045
1093.00,0.0046
1092.00,0.0046
1091.00,0.0046
1090.00,0.0047
1089.00,0.0049
1088.00,0.0049
1087.00,0.0050
1086.00,0.0050
1085.00,0.0050
1084.00,0.0050
1083.00,0.0052
1082.00,0.0054
1081.00,0.0055
1080.00,0.0056
1079.00,0.0056
1078.00,0.0055
1077.00,0.0056
1076.00,0.0058
1075.00,0.0059
1074.00,0.0059
1073.00,0.0059
1072.00,0.0059
1071.00,0.0060
1070.00,0.0060
1069.00,0.0060
1068.00,0.0059
1067.00,0.0059
1066.00,0.0059
1065.00,0.0059
1064.00,0.0058
1063.00,0.0057
1062.00,0.0055
1061.00,0.0053
1060.00,0.0051
1059.00,0.0050
1058.00,0.0048
1057.00,0.0046
1056.00,0.0046
1055.00,0.0046
1054.00,0.0047
1053.00,0.0048
1052.00,0.0049
1051.00,0.0050
1050.00,0.0051
1049.00,0.0051
1048.00,0.0051
1047.00,0.0049
1046.00,0.0048
1045.00,0.0047
1044.00,0.0048
1043.00,0.0048
1042.00,0.0049
1041.00,0.0048
1040.00,0.0047
1039.00,0.0046
1038.00,0.0045
1037.00,0.0044
1036.00,0.0042
1035.00,0.0041
1034.00,0.0040
1033.00,0.0040
1032.00,0.0040
1031.00,0.0040
1030.00,0.0040
1029.00,0.0040
1028.00,0.0039
1027.00,0.0038
1026.00,0.0038
1025.00,0.0038
1024.00,0.0038
1023.00,0.0037
1022.00,0.0037
1021.00,0.0036
1020.00,0.0036
1019.00,0.0035
1018.00,0.0034
1017.00,0.0033
1016.00,0.0032
1015.00,0.0031
1014.00,0.0031
1013.00,0.0031
1012.00,0.0030
1011.00,0.0029
1010.00,0.0027
1009.00,0.0025
1008.00,0.0024
1007.00,0.0023
1006.00,0.0024
1005.00,0.0025
1004.00,0.0026
1003.00,0.0026
1002.00,0.0026
1001.00,0.0025
1000.00,0.0025
999.00,0.0025
998.00,0.0025
997.00,0.0024
996.00,0.0024
995.00,0.0024
994.00,0.0024
993.00,0.0025
992.00,0.0026
991.00,0.0025
990.00,0.0025
989.00,0.0024
988.00,0.0024
987.00,0.0024
986.00,0.0024
985.00,0.0024
984.00,0.0024
983.00,0.0024
982.00,0.0024
981.00,0.0025
980.00,0.0025
979.00,0.0027
978.00,0.0028
977.00,0.0029
976.00,0.0029
975.00,0.0029
974.00,0.0030
973.00,0.0031
972.00,0.0032
971.00,0.0032
970.00,0.0032
969.00,0.0032
968.00,0.0032
967.00,0.0033
966.00,0.0034
965.00,0.0034
964.00,0.0035
963.00,0.0035
962.00,0.0036
961.00,0.0036
960.00,0.0036
959.00,0.0036
958.00,0.0036
957.00,0.0036
956.00,0.0037
955.00,0.0037
954.00,0.0037
953.00,0.0038
952.00,0.0039
951.00,0.0039
950.00,0.0039
949.00,0.0039
948.00,0.0038
947.00,0.0038
946.00,0.0039
945.00,0.0039
944.00,0.0039
943.00,0.0040
942.00,0.0040
941.00,0.0040
940.00,0.0041
939.00,0.0040
938.00,0.0040
937.00,0.0039
936.00,0.0038
935.00,0.0038
934.00,0.0038
933.00,0.0038
932.00,0.0039
931.00,0.0040
930.00,0.0041
929.00,0.0042
928.00,0.0041
927.00,0.0041
926.00,0.0040
925.00,0.0040
924.00,0.0040
923.00,0.0040
922.00,0.0039
921.00,0.0039
920.00,0.0039
919.00,0.0040
918.00,0.0041
917.00,0.0042
916.00,0.0042
915.00,0.0041
914.00,0.0040
913.00,0.0040
912.00,0.0040
911.00,0.0040
910.00,0.0040
909.00,0.0040
908.00,0.0041
907.00,0.0041
906.00,0.0041
905.00,0.0041
904.00,0.0041
903.00,0.0041
902.00,0.0041
901.00,0.0042
900.00,0.0042
899.00,0.0041
898.00,0.0041
897.00,0.0040
896.00,0.0039
895.00,0.0039
894.00,0.0039
893.00,0.0039
892.00,0.0039
891.00,0.0039
890.00,0.0038
889.00,0.0038
888.00,0.0039
887.00,0.0039
886.00,0.0038
885.00,0.0036
884.00,0.0035
883.00,0.0035
882.00,0.0036
881.00,0.0036
880.00,0.0037
879.00,0.0037
878.00,0.0037
877.00,0.0037
876.00,0.0036
875.00,0.0037
874.00,0.0037
873.00,0.0037
872.00,0.0037
871.00,0.0037
870.00,0.0036
869.00,0.0035
868.00,0.0035
867.00,0.0035
866.00,0.0035
865.00,0.0035
864.00,0.0035
863.00,0.0034
862.00,0.0034
861.00,0.0034
860.00,0.0033
859.00,0.0033
858.00,0.0033
857.00,0.0032
856.00,0.0032
855.00,0.0033
854.00,0.0034
853.00,0.0034
852.00,0.0034
851.00,0.0034
850.00,0.0033
849.00,0.0032
848.00,0.0031
847.00,0.0031
846.00,0.0030
845.00,0.0031
844.00,0.0031
843.00,0.0032
842.00,0.0033
841.00,0.0033
840.00,0.0033
839.00,0.0032
838.00,0.0030
837.00,0.0030
836.00,0.0030
835.00,0.0032
834.00,0.0033
833.00,0.0034
832.00,0.0034
831.00,0.0035
830.00,0.0034
829.00,0.0034
828.00,0.0034
827.00,0.0033
826.00,0.0034
825.00,0.0035
824.00,0.0036
823.00,0.0036
822.00,0.0037
821.00,0.0037
820.00,0.0038
819.00,0.0039
818.00,0.0039
817.00,0.0039
816.00,0.0039
815.00,0.0039
814.00,0.0038
813.00,0.0037
812.00,0.0037
811.00,0.0037
810.00,0.0037
809.00,0.0038
808.00,0.0038
807.00,0.0039
806.00,0.0040
805.00,0.0040
804.00,0.0040
803.00,0.0040
802.00,0.0040
801.00,0.0040
800.00,0.0041
799.00,0.0041
798.00,0.0041
797.00,0.0041
796.00,0.0041
795.00,0.0041
794.00,0.0041
793.00,0.0041
792.00,0.0042
791.00,0.0043
790.00,0.0043
789.00,0.0043
788.00,0.0043
787.00,0.0042
786.00,0.0042
785.00,0.0041
784.00,0.0042
783.00,0.0044
782.00,0.0046
781.00,0.0047
780.00,0.0048
779.00,0.0048
778.00,0.0047
777.00,0.0046
776.00,0.0047
775.00,0.0047
774.00,0.0048
773.00,0.0049
772.00,0.0049
771.00,0.0049
770.00,0.0048
769.00,0.0048
768.00,0.0049
767.00,0.0050
766.00,0.0051
765.00,0.0051
764.00,0.0051
763.00,0.0052
762.00,0.0054
761.00,0.0055
760.00,0.0056
759.00,0.0056
758.00,0.0057
757.00,0.0062
756.00,0.0072
755.00,0.0082
754.00,0.0086
753.00,0.0080
752.00,0.0068
751.00,0.0059
750.00,0.0054
749.00,0.0053
748.00,0.0053
747.00,0.0053
746.00,0.0055
745.00,0.0056
744.00,0.0057
743.00,0.0057
742.00,0.0057
741.00,0.0057
740.00,0.0057
739.00,0.0056
738.00,0.0055
737.00,0.0055
736.00,0.0055
735.00,0.0056
734.00,0.0058
733.00,0.0058
732.00,0.0058
731.00,0.0057
730.00,0.0057
729.00,0.0056
728.00,0.0057
727.00,0.0058
726.00,0.0059
725.00,0.0060
724.00,0.0060
723.00,0.0061
722.00,0.0061
721.00,0.0062
720.00,0.0064
719.00,0.0065
718.00,0.0066
717.00,0.0067
716.00,0.0068
715.00,0.0069
714.00,0.0069
713.00,0.0069
712.00,0.0069
711.00,0.0070
710.00,0.0071
709.00,0.0073
708.00,0.0075
707.00,0.0076
706.00,0.0077
705.00,0.0078
704.00,0.0080
703.00,0.0082
702.00,0.0084
701.00,0.0085
700.00,0.0086
699.00,0.0087
698.00,0.0088
697.00,0.0088
696.00,0.0088
695.00,0.0087
694.00,0.0086
693.00,0.0085
692.00,0.0085
691.00,0.0084
690.00,0.0083
689.00,0.0083
688.00,0.0083
687.00,0.0084
686.00,0.0084
685.00,0.0084
684.00,0.0084
683.00,0.0084
682.00,0.0084
681.00,0.0085
680.00,0.0085
679.00,0.0085
678.00,0.0084
677.00,0.0084
676.00,0.0084
675.00,0.0085
674.00,0.0087
673.00,0.0089
672.00,0.0090
671.00,0.0090
670.00,0.0090
669.00,0.0087
668.00,0.0084
667.00,0.0083
666.00,0.0086
665.00,0.0088
664.00,0.0088
663.00,0.0088
662.00,0.0088
661.00,0.0088
660.00,0.0089
659.00,0.0090
658.00,0.0091
657.00,0.0091
656.00,0.0091
655.00,0.0090
654.00,0.0090
653.00,0.0090
652.00,0.0090
651.00,0.0090
650.00,0.0090
649.00,0.0091
648.00,0.0092
647.00,0.0093
646.00,0.0095
645.00,0.0096
644.00,0.0096
643.00,0.0096
642.00,0.0095
641.00,0.0095
640.00,0.0095
639.00,0.0096
638.00,0.0098
637.00,0.0099
636.00,0.0101
635.00,0.0100
634.00,0.0099
633.00,0.0097
632.00,0.0098
631.00,0.0099
630.00,0.0101
629.00,0.0102
628.00,0.0102
627.00,0.0101
626.00,0.0099
625.00,0.0099
624.00,0.0100
623.00,0.0101
622.00,0.0101
621.00,0.0100
620.00,0.0099
619.00,0.0099
618.00,0.0098
617.00,0.0097
616.00,0.0096
615.00,0.0095
614.00,0.0095
613.00,0.0097
612.00,0.0099
611.00,0.0103
610.00,0.0105
609.00,0.0104
608.00,0.0102
607.00,0.0100
606.00,0.0099
605.00,0.0099
604.00,0.0100
603.00,0.0099
602.00,0.0099
601.00,0.0099
600.00,0.0100
599.00,0.0100
598.00,0.0099
597.00,0.0098
596.00,0.0098
595.00,0.0098
594.00,0.0098
593.00,0.0098
592.00,0.0098
591.00,0.0098
590.00,0.0098
589.00,0.0098
588.00,0.0097
587.00,0.0097
586.00,0.0097
585.00,0.0098
584.00,0.0099
583.00,0.0099
582.00,0.0098
581.00,0.0098
580.00,0.0098
579.00,0.0098
578.00,0.0098
577.00,0.0097
576.00,0.0096
575.00,0.0096
574.00,0.0097
573.00,0.0099
572.00,0.0101
571.00,0.0102
570.00,0.0103
569.00,0.0104
568.00,0.0105
567.00,0.0106
566.00,0.0106
565.00,0.0107
564.00,0.0107
563.00,0.0105
562.00,0.0102
561.00,0.0100
560.00,0.0099
559.00,0.0099
558.00,0.0101
557.00,0.0103
556.00,0.0106
555.00,0.0107
554.00,0.0107
553.00,0.0108
552.00,0.0108
551.00,0.0109
550.00,0.0108
549.00,0.0107
548.00,0.0106
547.00,0.0107
546.00,0.0108
545.00,0.0108
544.00,0.0108
543.00,0.0108
542.00,0.0109
541.00,0.0109
540.00,0.0110
539.00,0.0110
538.00,0.0108
537.00,0.0106
536.00,0.0105
535.00,0.0105
534.00,0.0106
533.00,0.0109
532.00,0.0112
531.00,0.0116
530.00,0.0118
529.00,0.0119
528.00,0.0119
527.00,0.0117
526.00,0.0116
525.00,0.0117
524.00,0.0119
523.00,0.0121
522.00,0.0119
521.00,0.0116
520.00,0.0114
519.00,0.0114
518.00,0.0114
517.00,0.0113
516.00,0.0112
515.00,0.0111
514.00,0.0109
513.00,0.0108
512.00,0.0107
511.00,0.0108
510.00,0.0111
509.00,0.0114
508.00,0.0117
507.00,0.0117
506.00,0.0116
505.00,0.0115
504.00,0.0117
503.00,0.0122
502.00,0.0125
501.00,0.0123
500.00,0.0118
499.00,0.0113
498.00,0.0110
497.00,0.0108
496.00,0.0106
495.00,0.0106
494.00,0.0106
493.00,0.0107
492.00,0.0109
491.00,0.0111
490.00,0.0113
489.00,0.0115
488.00,0.0117
487.00,0.0119
486.00,0.0118
485.00,0.0116
484.00,0.0113
483.00,0.0112
482.00,0.0113
481.00,0.0117
480.00,0.0119
479.00,0.0120
478.00,0.0117
477.00,0.0114
476.00,0.0110
475.00,0.0107
474.00,0.0105
473.00,0.0105
472.00,0.0108
471.00,0.0113
470.00,0.0116
469.00,0.0115
468.00,0.0111
467.00,0.0109
466.00,0.0108
465.00,0.0109
464.00,0.0108
463.00,0.0104
462.00,0.0098
461.00,0.0096
460.00,0.0097
459.00,0.0101
458.00,0.0104
457.00,0.0107
456.00,0.0110
455.00,0.0113
454.00,0.0115
453.00,0.0117
452.00,0.0116
451.00,0.0112
450.00,0.0107
449.00,0.0103
448.00,0.0103
447.00,0.0103
446.00,0.0102
445.00,0.0102
444.00,0.0106
443.00,0.0111
442.00,0.0114
441.00,0.0115
440.00,0.0117
439.00,0.0119
438.00,0.0117
437.00,0.0109
436.00,0.0097
435.00,0.0088
434.00,0.0088
433.00,0.0096
432.00,0.0108
431.00,0.0116
430.00,0.0118
429.00,0.0117
428.00,0.0114
427.00,0.0111
426.00,0.0108
425.00,0.0106
424.00,0.0104
423.00,0.0102
422.00,0.0100
421.00,0.0099
420.00,0.0094
419.00,0.0085
418.00,0.0076
417.00,0.0075
416.00,0.0080
415.00,0.0085
414.00,0.0088
413.00,0.0088
412.00,0.0088
411.00,0.0087
410.00,0.0086
409.00,0.0091
408.00,0.0103
407.00,0.0116
406.00,0.0117
405.00,0.0105
404.00,0.0088
403.00,0.0074
402.00,0.0065
401.00,0.0058
400.00,0.0050
